[MS Spectrum]
# of Peaks	2020
Raw Spectrum	[6.409],(scan:[1924])
Background	No Background Spectrum
Base Peak	m/z 71.50 (Inten : 10,619)
m/z	Absolute Intensity	Relative Intensity
50.70	6000	56.50
51.80	7078	66.65
52.95	6196	58.35
53.60	2067	19.47
54.60	2368	22.30
55.40	2245	21.14
56.25	5685	53.54
57.10	2425	22.84
58.15	6597	62.12
59.30	7163	67.45
60.00	2408	22.68
61.00	2463	23.19
62.20	10230	96.34
63.60	7055	66.44
64.75	6608	62.23
65.70	4649	43.78
66.85	8633	81.30
67.95	3818	35.95
68.70	2143	20.18
69.65	7893	74.33
70.80	2114	19.91
71.50	10619	100.00
73.10	4601	43.33
74.15	4748	44.71
75.30	5128	48.29
76.30	3457	32.55
77.35	4702	44.28
78.45	4641	43.70
79.55	4427	41.69
80.55	3897	36.70
81.50	1544	14.54
82.75	4095	38.56
83.95	4104	38.65
84.90	3008	28.33
85.90	4593	43.25
86.80	1227	11.55
88.00	3334	31.40
89.10	4020	37.86
90.20	2847	26.81
91.25	3371	31.74
92.35	3285	30.94
93.35	2545	23.97
94.45	4020	37.86
95.50	2484	23.39
96.50	3185	29.99
97.60	3506	33.02
98.75	2827	26.62
99.80	3638	34.26
100.90	2208	20.79
101.75	2075	19.54
103.00	2586	24.35
104.10	2667	25.12
105.15	3248	30.59
106.45	3249	30.60
107.45	1642	15.46
108.30	1508	14.20
109.40	2866	26.99
110.50	2340	22.04
111.60	2503	23.57
112.75	2338	22.02
113.60	1077	10.14
114.90	2320	21.85
115.90	1978	18.63
117.00	2265	21.33
118.05	1822	17.16
119.10	2614	24.62
120.30	1852	17.44
121.65	919	8.65
122.35	1587	14.94
123.40	2092	19.70
124.50	2171	20.44
125.55	1736	16.35
126.60	1571	14.79
127.65	1106	10.42
128.40	1741	16.40
129.90	2046	19.27
131.25	1709	16.09
132.10	1647	15.51
133.10	1332	12.54
134.25	1714	16.14
135.20	1172	11.04
136.25	891	8.39
136.75	741	6.98
137.45	1341	12.63
138.35	1114	10.49
139.55	1760	16.57
140.55	1422	13.39
141.75	1245	11.72
142.75	1600	15.07
143.65	878	8.27
144.85	1283	12.08
145.90	1932	18.19
147.25	1103	10.39
148.00	1033	9.73
148.90	799	7.52
149.55	804	7.57
150.30	540	5.09
151.20	1326	12.49
152.40	1225	11.54
153.35	1239	11.67
154.10	362	3.41
154.95	916	8.63
155.55	418	3.94
156.45	1185	11.16
157.10	418	3.94
158.30	1500	14.13
159.65	1588	14.95
160.90	856	8.06
161.95	882	8.31
163.35	1238	11.66
164.35	1110	10.45
165.30	549	5.17
165.70	393	3.70
166.30	859	8.09
166.80	488	4.60
167.40	893	8.41
168.15	1786	16.82
169.40	787	7.41
169.95	180	1.70
170.55	633	5.96
171.60	825	7.77
172.25	181	1.70
172.65	339	3.19
173.60	636	5.99
174.20	678	6.38
175.05	1493	14.06
175.90	577	5.43
176.50	440	4.14
177.35	795	7.49
178.20	655	6.17
179.30	1065	10.03
180.45	913	8.60
181.35	1012	9.53
182.35	480	4.52
182.80	267	2.51
183.60	1184	11.15
184.60	919	8.65
185.55	495	4.66
186.15	300	2.83
186.70	439	4.13
187.10	316	2.98
187.80	906	8.53
188.55	380	3.58
188.95	173	1.63
189.85	982	9.25
190.75	656	6.18
191.30	300	2.83
191.65	179	1.69
192.40	471	4.44
193.20	473	4.45
193.95	534	5.03
194.50	498	4.69
195.35	496	4.67
196.15	562	5.29
196.70	274	2.58
197.35	377	3.55
198.80	523	4.93
199.50	401	3.78
199.95	418	3.94
200.80	243	2.29
202.10	324	3.05
202.75	416	3.92
203.55	1126	10.60
204.20	534	5.03
205.30	275	2.59
206.40	380	3.58
207.30	504	4.75
208.05	555	5.23
208.75	189	1.78
209.10	226	2.13
209.55	344	3.24
210.40	416	3.92
211.40	304	2.86
211.80	247	2.33
212.55	734	6.91
213.30	535	5.04
214.25	1341	12.63
215.50	354	3.33
216.15	171	1.61
216.60	416	3.92
217.20	395	3.72
217.95	925	8.71
218.75	348	3.28
219.20	203	1.91
219.90	839	7.90
220.80	492	4.63
221.60	559	5.26
222.30	270	2.54
223.15	774	7.29
224.60	172	1.62
225.30	358	3.37
225.70	232	2.18
226.15	222	2.09
226.80	239	2.25
227.45	467	4.40
228.45	345	3.25
228.95	276	2.60
229.55	761	7.17
230.30	101	0.95
231.10	533	5.02
231.55	274	2.58
232.10	209	1.97
232.70	401	3.78
233.75	278	2.62
234.25	155	1.46
235.05	450	4.24
236.35	290	2.73
237.70	321	3.02
238.45	295	2.78
239.10	496	4.67
240.30	431	4.06
241.15	363	3.42
242.25	441	4.15
242.80	145	1.37
243.40	575	5.41
244.30	295	2.78
244.90	607	5.72
245.50	261	2.46
246.50	409	3.85
247.00	102	0.96
247.75	648	6.10
248.60	131	1.23
249.15	179	1.69
249.80	82	0.77
250.20	111	1.05
250.80	474	4.46
251.90	401	3.78
253.15	698	6.57
253.85	708	6.67
255.20	775	7.30
256.15	493	4.64
256.55	217	2.04
257.45	266	2.50
258.35	355	3.34
259.35	581	5.47
260.45	135	1.27
261.75	888	8.36
262.70	400	3.77
263.60	513	4.83
264.60	614	5.78
265.70	416	3.92
266.30	679	6.39
267.30	132	1.24
268.05	642	6.05
268.85	452	4.26
270.20	332	3.13
271.20	256	2.41
272.00	823	7.75
273.30	420	3.96
273.75	120	1.13
274.40	495	4.66
275.55	494	4.65
276.60	514	4.84
277.50	328	3.09
278.00	220	2.07
278.55	307	2.89
279.05	237	2.23
279.80	460	4.33
280.80	459	4.32
281.55	402	3.79
282.25	156	1.47
283.05	856	8.06
283.95	433	4.08
285.15	489	4.60
286.10	560	5.27
287.20	553	5.21
288.25	293	2.76
289.30	540	5.09
290.50	318	2.99
291.40	345	3.25
292.70	590	5.56
293.60	437	4.12
294.70	267	2.51
295.05	169	1.59
295.70	533	5.02
296.70	353	3.32
297.30	181	1.70
298.00	523	4.93
298.80	384	3.62
299.50	153	1.44
300.20	246	2.32
301.10	388	3.65
301.55	108	1.02
302.20	683	6.43
303.20	316	2.98
304.15	399	3.76
305.40	495	4.66
306.35	412	3.88
307.35	223	2.10
307.80	295	2.78
308.50	388	3.65
309.40	248	2.34
310.80	561	5.28
311.60	289	2.72
312.10	132	1.24
312.80	216	2.03
313.20	245	2.31
313.80	409	3.85
314.55	265	2.50
315.40	600	5.65
316.85	5676	53.45
318.20	306	2.88
319.30	655	6.17
320.25	268	2.52
320.50	165	1.55
321.40	480	4.52
322.40	335	3.15
322.80	197	1.86
323.55	338	3.18
324.45	139	1.31
324.85	233	2.19
325.65	440	4.14
326.60	215	2.02
327.85	495	4.66
328.85	382	3.60
329.80	120	1.13
330.25	182	1.71
331.05	406	3.82
332.05	351	3.31
333.20	512	4.82
334.15	793	7.47
335.15	349	3.29
335.60	85	0.80
336.40	527	4.96
337.40	349	3.29
338.35	279	2.63
338.70	265	2.50
339.50	213	2.01
339.85	84	0.79
340.50	514	4.84
340.95	84	0.79
341.55	315	2.97
342.15	52	0.49
342.55	150	1.41
343.00	126	1.19
343.75	262	2.47
344.05	142	1.34
344.85	291	2.74
345.95	558	5.25
346.90	245	2.31
348.20	402	3.79
349.10	2595	24.44
350.25	509	4.79
351.30	430	4.05
352.60	253	2.38
353.45	354	3.33
354.50	301	2.83
355.55	457	4.30
356.40	114	1.07
357.55	263	2.48
358.75	506	4.77
359.65	152	1.43
360.80	242	2.28
361.90	233	2.19
363.10	387	3.64
364.40	989	9.31
365.15	522	4.92
366.20	299	2.82
367.25	348	3.28
368.35	340	3.20
369.30	343	3.23
370.45	287	2.70
370.75	173	1.63
371.50	253	2.38
372.60	203	1.91
373.50	335	3.15
374.65	252	2.37
375.05	59	0.56
375.95	361	3.40
376.75	292	2.75
378.10	232	2.18
378.80	1068	10.06
379.95	235	2.21
380.40	139	1.31
380.95	956	9.00
382.15	444	4.18
383.25	676	6.37
384.35	419	3.95
385.40	254	2.39
385.75	178	1.68
386.40	137	1.29
387.40	346	3.26
388.55	269	2.53
389.65	245	2.31
390.55	271	2.55
391.75	294	2.77
392.80	162	1.53
393.20	64	0.60
394.05	487	4.59
395.00	322	3.03
396.15	451	4.25
397.05	257	2.42
397.45	80	0.75
398.10	202	1.90
399.25	269	2.53
400.30	526	4.95
401.30	184	1.73
402.45	342	3.22
403.40	338	3.18
404.60	361	3.40
405.95	257	2.42
406.80	501	4.72
407.80	513	4.83
408.95	230	2.17
410.00	391	3.68
411.30	185	1.74
412.10	237	2.23
413.10	116	1.09
414.20	451	4.25
415.25	641	6.04
416.45	1161	10.93
417.45	333	3.14
418.45	742	6.99
419.55	139	1.31
420.50	496	4.67
421.75	286	2.69
422.50	978	9.21
423.85	237	2.23
424.90	348	3.28
426.05	140	1.32
427.00	331	3.12
428.00	294	2.77
429.15	177	1.67
430.25	413	3.89
431.30	364	3.43
432.35	358	3.37
433.40	289	2.72
434.45	391	3.68
435.45	418	3.94
436.65	409	3.85
437.60	257	2.42
438.80	124	1.17
439.80	643	6.06
441.00	212	2.00
441.95	285	2.68
443.10	315	2.97
444.15	271	2.55
445.15	589	5.55
446.30	294	2.77
447.30	585	5.51
448.45	383	3.61
449.45	455	4.28
450.55	668	6.29
451.70	569	5.36
452.75	194	1.83
453.75	345	3.25
454.75	368	3.47
455.85	277	2.61
457.05	656	6.18
457.95	224	2.11
459.15	236	2.22
460.20	622	5.86
461.20	215	2.02
462.50	647	6.09
463.35	440	4.14
464.50	436	4.11
465.50	585	5.51
466.60	385	3.63
467.65	210	1.98
468.75	338	3.18
469.85	484	4.56
470.90	77	0.73
471.95	356	3.35
473.00	369	3.47
474.15	565	5.32
475.00	647	6.09
476.20	225	2.12
477.35	311	2.93
478.40	272	2.56
479.50	392	3.69
480.45	286	2.69
481.65	230	2.17
482.60	212	2.00
483.75	298	2.81
484.80	463	4.36
485.95	169	1.59
487.00	253	2.38
488.00	437	4.12
489.15	608	5.73
490.25	391	3.68
491.15	279	2.63
492.30	354	3.33
493.10	1735	16.34
494.55	201	1.89
495.45	267	2.51
496.55	468	4.41
497.65	402	3.79
498.70	393	3.70
499.85	543	5.11
500.75	173	1.63
502.00	350	3.30
503.05	474	4.46
504.15	456	4.29
505.10	171	1.61
506.25	195	1.84
506.60	196	1.85
507.20	288	2.71
508.35	234	2.20
508.60	125	1.18
509.40	192	1.81
510.50	298	2.81
510.85	118	1.11
511.55	445	4.19
512.55	250	2.35
513.70	304	2.86
514.85	163	1.53
515.80	31	0.29
516.30	73	0.69
516.90	443	4.17
518.00	336	3.16
519.10	191	1.80
520.10	336	3.16
521.25	378	3.56
522.35	381	3.59
523.35	170	1.60
523.60	91	0.86
524.40	298	2.81
525.45	329	3.10
526.65	401	3.78
527.60	126	1.19
528.75	229	2.16
529.05	163	1.53
529.80	294	2.77
530.80	137	1.29
531.90	404	3.80
533.05	551	5.19
534.25	219	2.06
535.15	236	2.22
536.35	507	4.77
537.25	98	0.92
538.40	297	2.80
539.40	244	2.30
540.50	146	1.37
541.65	323	3.04
542.70	118	1.11
544.10	79	0.74
544.80	261	2.46
546.15	99	0.93
547.00	378	3.56
548.05	311	2.93
549.25	350	3.30
550.10	254	2.39
550.60	75	0.71
551.20	92	0.87
551.55	193	1.82
552.60	63	0.59
553.40	182	1.71
554.45	233	2.19
555.45	34	0.32
556.55	177	1.67
556.85	121	1.14
557.80	83	0.78
558.75	184	1.73
559.80	149	1.40
560.80	5	0.05
562.05	364	3.43
563.00	205	1.93
564.20	141	1.33
565.15	279	2.63
565.55	108	1.02
566.35	383	3.61
567.35	185	1.74
568.30	66	0.62
569.40	231	2.18
570.40	226	2.13
571.60	281	2.65
571.90	120	1.13
572.60	215	2.02
572.95	90	0.85
573.85	232	2.18
574.80	191	1.80
575.75	105	0.99
576.20	126	1.19
576.95	148	1.39
577.25	104	0.98
578.35	130	1.22
579.20	373	3.51
580.30	315	2.97
581.20	97	0.91
582.35	111	1.05
583.40	291	2.74
584.45	354	3.33
585.45	172	1.62
585.75	118	1.11
586.65	401	3.78
588.10	110	1.04
588.70	281	2.65
589.80	124	1.17
591.15	256	2.41
591.80	137	1.29
592.25	39	0.37
593.05	372	3.50
594.20	160	1.51
595.05	166	1.56
596.10	200	1.88
596.45	104	0.98
597.40	235	2.21
598.45	497	4.68
599.40	444	4.18
600.30	131	1.23
601.55	474	4.46
602.55	190	1.79
603.95	350	3.30
604.75	153	1.44
605.85	203	1.91
606.90	322	3.03
607.85	87	0.82
609.20	292	2.75
610.10	351	3.31
611.30	292	2.75
612.35	332	3.13
613.40	70	0.66
614.30	288	2.71
615.30	333	3.14
616.55	234	2.20
617.55	341	3.21
618.70	450	4.24
619.90	215	2.02
620.65	146	1.37
622.10	350	3.30
622.90	220	2.07
624.15	346	3.26
625.00	194	1.83
625.95	251	2.36
626.30	252	2.37
627.40	100	0.94
628.05	294	2.77
629.00	149	1.40
630.25	139	1.31
631.35	208	1.96
631.65	151	1.42
632.50	132	1.24
633.35	153	1.44
633.70	155	1.46
634.45	198	1.86
635.60	44	0.41
636.30	130	1.22
636.80	118	1.11
637.50	118	1.11
638.75	119	1.12
639.20	181	1.70
639.75	114	1.07
641.30	34	0.32
642.20	110	1.04
642.50	139	1.31
642.85	88	0.83
643.50	265	2.50
644.35	198	1.86
645.55	67	0.63
646.35	286	2.69
647.40	6	0.06
648.35	164	1.54
648.75	187	1.76
649.75	449	4.23
650.40	222	2.09
651.75	171	1.61
652.65	408	3.84
653.65	83	0.78
654.20	116	1.09
655.20	57	0.54
655.95	302	2.84
657.15	1070	10.08
658.15	309	2.91
659.40	272	2.56
660.40	15	0.14
661.50	218	2.05
662.40	208	1.96
663.65	94	0.89
664.35	130	1.22
666.80	74	0.70
667.15	55	0.52
667.75	241	2.27
668.70	164	1.54
669.10	192	1.81
670.05	375	3.53
671.10	59	0.56
672.25	187	1.76
673.10	163	1.53
674.00	4	0.04
675.25	208	1.96
676.10	147	1.38
676.55	137	1.29
677.15	205	1.93
678.35	221	2.08
678.75	74	0.70
679.80	234	2.20
681.15	56	0.53
681.60	192	1.81
682.80	290	2.73
684.05	64	0.60
685.10	287	2.70
685.70	162	1.53
686.10	132	1.24
687.15	182	1.71
687.85	81	0.76
688.85	39	0.37
689.35	52	0.49
689.95	99	0.93
690.35	181	1.70
691.30	321	3.02
691.90	94	0.89
692.60	101	0.95
693.25	133	1.25
694.25	76	0.72
694.60	94	0.89
695.50	204	1.92
696.45	170	1.60
697.35	142	1.34
697.85	134	1.26
698.60	52	0.49
699.20	81	0.76
700.80	131	1.23
701.15	55	0.52
701.55	106	1.00
703.15	123	1.16
703.85	111	1.05
704.35	73	0.69
705.40	205	1.93
706.05	223	2.10
706.45	96	0.90
707.05	164	1.54
707.35	106	1.00
708.35	220	2.07
709.25	355	3.34
709.60	109	1.03
710.55	253	2.38
711.50	5	0.05
712.90	521	4.91
713.45	87	0.82
715.00	177	1.67
715.75	156	1.47
717.15	86	0.81
718.15	263	2.48
718.80	160	1.51
719.90	14	0.13
720.70	3	0.03
721.40	453	4.27
722.35	48	0.45
723.35	427	4.02
724.45	141	1.33
725.60	172	1.62
726.85	310	2.92
727.75	111	1.05
728.60	134	1.26
729.30	77	0.73
729.95	234	2.20
731.20	240	2.26
732.20	17	0.16
733.00	218	2.05
734.05	223	2.10
735.25	74	0.70
736.20	208	1.96
737.10	365	3.44
738.25	255	2.40
739.55	315	2.97
740.45	220	2.07
740.80	63	0.59
741.30	132	1.24
742.40	455	4.28
743.65	173	1.63
745.10	131	1.23
745.70	180	1.70
746.55	110	1.04
748.10	105	0.99
749.30	219	2.06
750.20	128	1.21
751.15	427	4.02
751.70	21	0.20
752.50	149	1.40
753.50	262	2.47
754.25	188	1.77
754.65	76	0.72
755.50	404	3.80
756.15	69	0.65
757.55	431	4.06
758.60	36	0.34
759.45	25	0.24
760.05	292	2.75
760.55	198	1.86
762.65	69	0.65
763.15	178	1.68
764.10	338	3.18
765.20	82	0.77
766.40	70	0.66
767.40	272	2.56
768.50	133	1.25
769.40	285	2.68
770.60	220	2.07
771.65	49	0.46
772.75	160	1.51
773.45	94	0.89
774.10	111	1.05
774.45	77	0.73
775.00	88	0.83
775.55	104	0.98
776.05	155	1.46
777.00	58	0.55
778.10	262	2.47
778.65	117	1.10
779.30	328	3.09
780.20	344	3.24
781.15	99	0.93
781.50	136	1.28
782.40	193	1.82
783.35	483	4.55
784.45	270	2.54
785.60	107	1.01
786.45	152	1.43
787.75	332	3.13
788.55	237	2.23
789.95	194	1.83
790.95	353	3.32
792.00	31	0.29
792.95	206	1.94
794.20	368	3.47
795.35	160	1.51
796.25	411	3.87
797.40	245	2.31
798.35	198	1.86
799.50	216	2.03
800.35	149	1.40
801.60	228	2.15
802.95	297	2.80
804.10	129	1.21
804.75	137	1.29
805.80	244	2.30
807.15	63	0.59
808.20	510	4.80
810.20	136	1.28
811.30	296	2.79
812.20	75	0.71
813.40	138	1.30
814.25	161	1.52
814.55	93	0.88
815.60	136	1.28
816.65	222	2.09
817.30	77	0.73
817.65	186	1.75
818.70	178	1.68
819.90	277	2.61
820.40	178	1.68
820.85	65	0.61
821.60	32	0.30
822.00	45	0.42
823.05	172	1.62
824.20	90	0.85
825.25	392	3.69
826.30	25	0.24
827.55	220	2.07
828.35	111	1.05
829.35	385	3.63
830.45	94	0.89
831.40	5	0.05
832.35	125	1.18
832.65	128	1.21
833.65	160	1.51
834.55	129	1.21
835.05	46	0.43
835.80	217	2.04
836.55	98	0.92
836.90	179	1.69
838.55	41	0.39
839.05	277	2.61
840.15	140	1.32
841.25	83	0.78
841.70	122	1.15
842.40	205	1.93
844.20	314	2.96
845.50	171	1.61
846.50	41	0.39
847.65	151	1.42
848.70	89	0.84
849.95	209	1.97
850.70	33	0.31
851.60	118	1.11
852.00	93	0.88
853.00	338	3.18
853.55	131	1.23
854.05	111	1.05
855.15	136	1.28
856.20	110	1.04
858.30	296	2.79
859.00	66	0.62
859.45	220	2.07
859.90	160	1.51
861.25	211	1.99
861.55	165	1.55
862.55	567	5.34
863.60	315	2.97
864.70	94	0.89
865.60	58	0.55
866.45	125	1.18
867.35	115	1.08
868.10	236	2.22
869.05	243	2.29
870.00	63	0.59
871.10	266	2.50
872.25	117	1.10
873.30	129	1.21
874.00	71	0.67
874.40	177	1.67
874.95	90	0.85
875.45	89	0.84
876.10	83	0.78
877.55	105	0.99
878.65	116	1.09
879.40	9	0.08
880.25	82	0.77
880.70	136	1.28
881.45	140	1.32
883.05	177	1.67
883.55	51	0.48
884.00	64	0.60
884.80	85	0.80
885.15	160	1.51
885.55	24	0.23
886.15	41	0.39
886.75	100	0.94
887.15	192	1.81
888.10	14	0.13
889.05	160	1.51
889.35	164	1.54
889.80	37	0.35
890.45	81	0.76
891.30	15	0.14
892.15	142	1.34
892.40	92	0.87
893.40	1	0.01
894.75	192	1.81
895.70	159	1.50
896.45	95	0.89
897.50	59	0.56
897.95	89	0.84
898.50	258	2.43
899.05	102	0.96
899.55	148	1.39
899.95	123	1.16
901.05	222	2.09
902.10	194	1.83
903.20	162	1.53
904.20	333	3.14
905.40	144	1.36
906.35	286	2.69
907.35	532	5.01
908.35	148	1.39
909.60	191	1.80
910.70	66	0.62
911.45	73	0.69
912.95	266	2.50
913.90	262	2.47
915.20	105	0.99
916.20	22	0.21
917.15	157	1.48
918.25	188	1.77
919.25	171	1.61
919.90	72	0.68
920.30	80	0.75
921.30	256	2.41
922.55	67	0.63
923.55	68	0.64
924.70	90	0.85
925.70	95	0.89
926.80	135	1.27
927.25	64	0.60
927.90	112	1.05
928.45	60	0.57
928.80	71	0.67
929.55	85	0.80
930.25	85	0.80
931.10	60	0.57
932.10	226	2.13
933.10	48	0.45
934.15	169	1.59
935.30	116	1.09
936.10	12	0.11
937.00	170	1.60
937.90	70	0.66
939.20	137	1.29
939.60	90	0.85
940.05	139	1.31
941.50	161	1.52
942.90	266	2.50
943.40	99	0.93
943.90	242	2.28
944.70	42	0.40
945.45	49	0.46
946.60	98	0.92
947.10	95	0.89
948.20	198	1.86
949.30	448	4.22
950.35	161	1.52
951.20	196	1.85
952.10	43	0.40
952.90	376	3.54
953.45	245	2.31
954.55	181	1.70
955.15	156	1.47
956.10	24	0.23
956.90	4	0.04
957.75	259	2.44
958.85	162	1.53
959.45	91	0.86
960.20	20	0.19
961.00	118	1.11
962.25	52	0.49
963.15	129	1.21
964.05	547	5.15
965.40	218	2.05
965.75	62	0.58
966.25	264	2.49
966.95	92	0.87
967.40	109	1.03
968.30	73	0.69
969.10	109	1.03
969.55	155	1.46
970.55	136	1.28
971.25	60	0.57
971.55	64	0.60
972.40	32	0.30
973.20	274	2.58
973.95	167	1.57
974.30	214	2.02
975.10	7	0.07
975.90	244	2.30
977.00	165	1.55
978.65	185	1.74
979.15	211	1.99
979.65	139	1.31
980.65	126	1.19
981.45	388	3.65
982.40	98	0.92
982.85	249	2.34
983.55	83	0.78
984.45	441	4.15
985.60	205	1.93
986.10	208	1.96
986.60	137	1.29
987.15	60	0.57
987.70	735	6.92
988.25	279	2.63
989.70	138	1.30
990.35	213	2.01
991.40	133	1.25
992.10	205	1.93
993.10	136	1.28
994.10	318	2.99
995.00	384	3.62
996.10	28	0.26
997.10	8	0.08
998.25	159	1.50
999.30	47	0.44
1000.30	11	0.10
1001.30	32	0.30
1002.25	122	1.15
1003.75	342	3.22
1005.95	67	0.63
1006.50	188	1.77
1008.30	28	0.26
1009.15	1201	11.31
1010.20	142	1.34
1010.80	2006	18.89
1011.90	86	0.81
1012.45	98	0.92
1013.35	157	1.48
1014.05	190	1.79
1014.40	225	2.12
1015.60	154	1.45
1016.05	67	0.63
1016.55	266	2.50
1017.65	254	2.39
1018.30	218	2.05
1018.70	200	1.88
1019.75	73	0.69
1020.95	74	0.70
1022.10	115	1.08
1022.45	57	0.54
1023.05	170	1.60
1024.15	361	3.40
1025.25	118	1.11
1025.60	130	1.22
1026.60	17	0.16
1027.45	320	3.01
1027.90	175	1.65
1028.35	282	2.66
1029.50	71	0.67
1029.75	77	0.73
1030.55	102	0.96
1031.55	233	2.19
1032.70	169	1.59
1033.85	419	3.95
1035.95	159	1.50
1036.70	214	2.02
1037.80	15	0.14
1039.15	154	1.45
1040.20	140	1.32
1041.30	185	1.74
1042.30	209	1.97
1043.20	44	0.41
1044.35	312	2.94
1045.55	103	0.97
1046.55	277	2.61
1047.50	11	0.10
1048.75	239	2.25
1049.50	125	1.18
1050.95	382	3.60
1051.45	76	0.72
1051.85	142	1.34
1053.20	145	1.37
1054.10	261	2.46
1055.10	179	1.69
1056.20	225	2.12
1057.25	411	3.87
1058.20	8	0.08
1059.35	371	3.49
1060.30	263	2.48
1061.60	107	1.01
1063.75	217	2.04
1064.50	23	0.22
1065.35	205	1.93
1065.70	257	2.42
1066.80	251	2.36
1068.05	218	2.05
1069.05	101	0.95
1069.60	95	0.89
1069.95	33	0.31
1071.15	121	1.14
1072.25	99	0.93
1073.40	201	1.89
1074.30	129	1.21
1075.30	187	1.76
1076.40	65	0.61
1077.30	26	0.24
1077.75	87	0.82
1078.55	284	2.67
1079.35	138	1.30
1080.75	417	3.93
1081.70	47	0.44
1082.55	121	1.14
1084.15	97	0.91
1085.05	189	1.78
1086.10	45	0.42
1087.30	80	0.75
1088.35	181	1.70
1089.35	1031	9.71
1090.30	41	0.39
1091.45	234	2.20
1092.60	325	3.06
1093.60	449	4.23
1094.45	131	1.23
1095.45	75	0.71
1095.80	84	0.79
1096.65	323	3.04
1097.55	64	0.60
1098.95	341	3.21
1099.85	132	1.24
1101.15	301	2.83
1102.20	225	2.12
1103.00	247	2.33
1104.35	460	4.33
1105.30	271	2.55
1106.45	357	3.36
1107.25	154	1.45
1108.60	307	2.89
1109.50	112	1.05
1110.45	70	0.66
1110.90	107	1.01
1111.75	233	2.19
1112.70	38	0.36
1113.90	321	3.02
1114.85	164	1.54
1116.20	165	1.55
1117.00	173	1.63
1118.25	360	3.39
1119.20	7	0.07
1120.20	134	1.26
1122.40	138	1.30
1123.45	248	2.34
1124.45	231	2.18
1125.50	128	1.21
1126.10	86	0.81
1126.90	1104	10.40
1127.65	82	0.77
1128.85	212	2.00
1129.90	243	2.29
1130.95	70	0.66
1132.05	264	2.49
1132.95	119	1.12
1134.10	154	1.45
1134.35	126	1.19
1135.35	499	4.70
1137.45	554	5.22
1138.30	260	2.45
1139.45	205	1.93
1140.50	377	3.55
1140.95	88	0.83
1141.55	561	5.28
1142.65	320	3.01
1143.80	283	2.67
1144.75	198	1.86
1145.85	391	3.68
1147.00	307	2.89
1148.05	229	2.16
1148.45	66	0.62
1149.10	63	0.59
1150.10	399	3.76
1151.20	211	1.99
1152.25	301	2.83
1153.30	252	2.37
1154.40	204	1.92
1155.45	399	3.76
1156.65	183	1.72
1157.70	96	0.90
1158.50	248	2.34
1159.80	140	1.32
1160.75	230	2.17
1161.95	285	2.68
1163.00	246	2.32
1164.00	200	1.88
1165.15	567	5.34
1166.20	426	4.01
1167.35	243	2.29
1168.35	330	3.11
1169.40	397	3.74
1170.50	398	3.75
1171.55	228	2.15
1172.50	514	4.84
1173.65	306	2.88
1174.80	304	2.86
1175.85	86	0.81
1176.95	220	2.07
1178.00	491	4.62
1179.15	208	1.96
1180.20	401	3.78
1181.30	430	4.05
1182.35	598	5.63
1183.45	194	1.83
1184.45	298	2.81
1185.65	137	1.29
1186.65	356	3.35
1187.65	196	1.85
1188.70	277	2.61
1189.80	471	4.44
1190.85	305	2.87
1192.00	362	3.41
1192.85	240	2.26
1194.20	174	1.64
1195.15	267	2.51
1196.15	461	4.34
1197.35	103	0.97
1197.65	49	0.46
1198.25	249	2.34
1199.50	456	4.29
1200.55	272	2.56
1201.60	390	3.67
1202.60	79	0.74
1203.75	452	4.26
1204.95	142	1.34
1205.95	199	1.87
1206.90	147	1.38
1208.05	422	3.97
1209.25	224	2.11
1210.25	275	2.59
1211.15	133	1.25
1212.30	326	3.07
1213.35	325	3.06
1214.40	255	2.40
1215.65	224	2.11
1216.50	367	3.46
1217.65	247	2.33
1218.70	463	4.36
1219.80	397	3.74
1221.05	101	0.95
1221.90	129	1.21
1222.95	365	3.44
1224.15	198	1.86
1225.15	376	3.54
1226.30	417	3.93
1227.30	362	3.41
1228.40	350	3.30
1229.40	278	2.62
1230.45	278	2.62
1231.55	215	2.02
1232.55	243	2.29
1233.70	286	2.69
1234.85	424	3.99
1235.90	85	0.80
1236.95	407	3.83
1237.90	184	1.73
1239.20	109	1.03
1240.25	572	5.39
1241.15	160	1.51
1242.30	367	3.46
1243.30	310	2.92
1244.40	218	2.05
1245.40	512	4.82
1246.55	246	2.32
1247.60	335	3.15
1248.75	284	2.67
1249.75	494	4.65
1250.80	519	4.89
1252.05	305	2.87
1252.95	340	3.20
1254.05	156	1.47
1255.05	219	2.06
1256.25	326	3.07
1257.15	158	1.49
1258.30	220	2.07
1259.40	395	3.72
1260.35	155	1.46
1261.55	581	5.47
1262.50	242	2.28
1263.65	256	2.41
1264.70	175	1.65
1265.60	151	1.42
1266.85	433	4.08
1267.85	281	2.65
1269.00	352	3.31
1270.05	274	2.58
1271.10	29	0.27
1272.25	273	2.57
1273.40	230	2.17
1274.35	448	4.22
1275.35	277	2.61
1276.45	427	4.02
1277.50	245	2.31
1278.65	229	2.16
1279.75	249	2.34
1280.65	175	1.65
1281.80	127	1.20
1282.85	135	1.27
1283.65	60	0.57
1284.05	196	1.85
1285.00	298	2.81
1286.15	248	2.34
1287.15	217	2.04
1288.20	512	4.82
1289.35	297	2.80
1290.40	237	2.23
1291.60	414	3.90
1292.45	1010	9.51
1293.65	241	2.27
1294.75	219	2.06
1295.70	177	1.67
1296.90	275	2.59
1297.90	417	3.93
1298.90	16	0.15
1300.05	650	6.12
1301.10	29	0.27
1302.25	435	4.10
1303.25	338	3.18
1304.40	731	6.88
1305.35	200	1.88
1306.50	470	4.43
1307.50	255	2.40
1308.65	195	1.84
1309.60	436	4.11
1310.50	95	0.89
1311.80	270	2.54
1312.85	161	1.52
1314.05	248	2.34
1315.00	281	2.65
1316.15	411	3.87
1317.00	544	5.12
1318.25	320	3.01
1319.35	381	3.59
1320.50	618	5.82
1321.40	355	3.34
1322.50	225	2.12
1323.60	334	3.15
1324.65	330	3.11
1325.60	163	1.53
1326.85	424	3.99
1327.85	111	1.05
1329.00	293	2.76
1330.00	280	2.64
1331.00	439	4.13
1332.20	346	3.26
1333.25	153	1.44
1334.30	280	2.64
1335.30	336	3.16
1336.40	290	2.73
1337.50	315	2.97
1338.60	349	3.29
1339.65	443	4.17
1340.60	243	2.29
1341.80	351	3.31
1342.85	417	3.93
1344.05	177	1.67
1345.05	269	2.53
1346.00	303	2.85
1347.15	324	3.05
1348.15	409	3.85
1349.30	507	4.77
1350.30	429	4.04
1351.50	295	2.78
1352.50	227	2.14
1353.60	478	4.50
1354.70	516	4.86
1355.70	327	3.08
1356.80	366	3.45
1357.85	330	3.11
1359.05	153	1.44
1359.95	362	3.41
1360.95	115	1.08
1362.20	257	2.42
1363.25	581	5.47
1364.30	290	2.73
1365.25	150	1.41
1366.40	367	3.46
1367.50	358	3.37
1368.55	431	4.06
1369.60	390	3.67
1370.60	155	1.46
1371.80	463	4.36
1372.80	291	2.74
1373.80	98	0.92
1374.95	327	3.08
1376.05	287	2.70
1377.10	432	4.07
1378.10	53	0.50
1379.30	314	2.96
1380.40	373	3.51
1381.45	357	3.36
1382.45	120	1.13
1383.50	411	3.87
1384.65	522	4.92
1386.75	317	2.99
1387.80	302	2.84
1388.85	180	1.70
1389.95	177	1.67
1391.05	405	3.81
1392.00	79	0.74
1393.15	397	3.74
1394.20	301	2.83
1395.25	243	2.29
1396.40	375	3.53
1397.40	173	1.63
1398.50	196	1.85
1399.60	391	3.68
1400.60	219	2.06
1401.75	436	4.11
1402.75	248	2.34
1403.90	146	1.37
1404.90	427	4.02
1406.00	418	3.94
1407.15	310	2.92
1408.10	341	3.21
1409.25	430	4.05
1410.30	566	5.33
1411.35	362	3.41
1412.40	290	2.73
1413.50	466	4.39
1414.60	378	3.56
1415.50	43	0.40
1416.70	190	1.79
1417.75	351	3.31
1418.85	345	3.25
1419.85	450	4.24
1420.95	308	2.90
1422.10	453	4.27
1423.15	326	3.07
1424.20	451	4.25
1425.20	285	2.68
1426.35	620	5.84
1427.40	338	3.18
1428.55	410	3.86
1429.65	179	1.69
1430.55	241	2.27
1431.70	296	2.79
1432.65	250	2.35
1433.70	149	1.40
1434.90	362	3.41
1435.95	458	4.31
1437.10	398	3.75
1438.10	372	3.50
1439.25	425	4.00
1440.25	292	2.75
1441.30	331	3.12
1442.30	328	3.09
1443.40	432	4.07
1444.55	534	5.03
1445.55	344	3.24
1446.60	392	3.69
1447.70	385	3.63
1448.75	133	1.25
1449.80	320	3.01
1450.95	483	4.55
1452.10	373	3.51
1453.05	336	3.16
1454.10	332	3.13
1455.25	301	2.83
1456.30	457	4.30
1457.35	294	2.77
1458.35	237	2.23
1459.45	469	4.42
1460.50	321	3.02
1461.60	218	2.05
1462.70	378	3.56
1463.65	258	2.43
1464.90	379	3.57
1466.00	376	3.54
1467.10	256	2.41
1468.00	251	2.36
1469.05	249	2.34
1470.20	524	4.93
1471.30	555	5.23
1472.30	417	3.93
1473.35	245	2.31
1474.45	405	3.81
1475.50	313	2.95
1476.65	395	3.72
1477.70	489	4.60
1478.65	212	2.00
1479.75	153	1.44
1480.85	452	4.26
1481.90	177	1.67
1483.00	365	3.44
1484.05	453	4.27
1485.20	355	3.34
1486.25	309	2.91
1487.30	317	2.99
1488.25	236	2.22
1489.40	431	4.06
1490.45	247	2.33
1491.50	229	2.16
1492.65	204	1.92
1493.60	391	3.68
1494.80	329	3.10
1495.80	369	3.47
1497.00	92	0.87
1497.90	248	2.34
1499.00	320	3.01
1500.15	297	2.80
1501.20	486	4.58
1502.30	420	3.96
1503.30	483	4.55
1504.40	406	3.82
1505.40	430	4.05
1506.45	414	3.90
1507.55	426	4.01
1508.65	162	1.53
1509.70	304	2.86
1510.80	245	2.31
1511.95	215	2.02
1513.00	332	3.13
1514.05	689	6.49
1515.15	331	3.12
1516.20	467	4.40
1517.30	424	3.99
1518.30	376	3.54
1519.40	370	3.48
1520.45	230	2.17
1521.45	385	3.63
1522.60	390	3.67
1523.60	375	3.53
1524.75	307	2.89
1525.85	508	4.78
1526.70	108	1.02
1527.05	71	0.67
1527.85	240	2.26
1528.90	508	4.78
1530.15	311	2.93
1531.20	547	5.15
1532.30	428	4.03
1533.30	380	3.58
1534.40	484	4.56
1535.35	273	2.57
1536.50	278	2.62
1537.60	234	2.20
1538.60	437	4.12
1539.70	249	2.34
1540.75	571	5.38
1541.80	183	1.72
1542.90	286	2.69
1543.90	405	3.81
1545.10	339	3.19
1546.05	304	2.86
1547.20	363	3.42
1548.25	230	2.17
1549.30	475	4.47
1550.35	433	4.08
1551.45	169	1.59
1552.40	147	1.38
1553.55	563	5.30
1554.80	190	1.79
1555.70	426	4.01
1556.90	211	1.99
1557.90	267	2.51
1559.00	394	3.71
1560.15	175	1.65
1561.15	379	3.57
1562.15	277	2.61
1563.20	293	2.76
1564.25	306	2.88
1565.35	276	2.60
1566.35	224	2.11
1567.45	266	2.50
1568.55	421	3.96
1569.50	21	0.20
1570.65	390	3.67
1571.60	152	1.43
1572.85	375	3.53
1573.85	262	2.47
1575.10	234	2.20
1575.95	436	4.11
1576.95	195	1.84
1578.15	376	3.54
1579.15	377	3.55
1580.25	491	4.62
1581.40	437	4.12
1582.40	305	2.87
1583.45	207	1.95
1584.65	358	3.37
1585.70	304	2.86
1586.70	70	0.66
1587.80	174	1.64
1588.70	261	2.46
1590.05	202	1.90
1590.95	403	3.80
1592.00	253	2.38
1593.20	233	2.19
1594.15	579	5.45
1594.95	95	0.89
1596.30	410	3.86
1597.50	137	1.29
1598.45	314	2.96
1599.60	187	1.76
1600.55	191	1.80
1601.60	339	3.19
1602.95	134	1.26
1603.75	153	1.44
1605.00	126	1.19
1606.00	436	4.11
1607.10	353	3.32
1608.15	134	1.26
1609.20	129	1.21
1610.25	224	2.11
1611.30	164	1.54
1612.40	287	2.70
1613.45	298	2.81
1614.60	272	2.56
1615.60	403	3.80
1616.60	133	1.25
1617.70	156	1.47
1618.75	358	3.37
1619.90	395	3.72
1621.00	325	3.06
1622.00	362	3.41
1623.15	259	2.44
1624.10	238	2.24
1625.25	353	3.32
1626.25	241	2.27
1627.45	613	5.77
1628.45	378	3.56
1629.45	158	1.49
1630.65	399	3.76
1631.60	132	1.24
1632.70	274	2.58
1633.75	446	4.20
1635.00	74	0.70
1636.00	356	3.35
1637.05	98	0.92
1638.20	256	2.41
1639.10	217	2.04
1640.25	331	3.12
1641.30	309	2.91
1642.35	277	2.61
1643.40	206	1.94
1644.55	373	3.51
1645.60	345	3.25
1646.50	35	0.33
1647.75	424	3.99
1648.85	313	2.95
1649.80	150	1.41
1650.85	91	0.86
1651.95	306	2.88
1653.10	218	2.05
1654.15	330	3.11
1655.20	387	3.64
1656.25	129	1.21
1657.35	617	5.81
1658.50	156	1.47
1659.50	312	2.94
1660.55	263	2.48
1661.55	241	2.27
1662.65	287	2.70
1663.75	139	1.31
1664.85	235	2.21
1665.95	435	4.10
1666.90	219	2.06
1668.10	378	3.56
1669.05	135	1.27
1670.20	439	4.13
1671.30	170	1.60
1672.15	269	2.53
1673.30	288	2.71
1674.40	362	3.41
1675.50	384	3.62
1676.50	88	0.83
1677.55	294	2.77
1678.65	210	1.98
1679.75	221	2.08
1680.80	155	1.46
1681.85	285	2.68
1683.05	113	1.06
1683.90	15	0.14
1684.80	296	2.79
1686.15	100	0.94
1687.15	90	0.85
1688.05	76	0.72
1688.40	129	1.21
1689.35	278	2.62
1690.20	223	2.10
1690.55	135	1.27
1691.45	328	3.09
1692.60	321	3.02
1693.55	379	3.57
1694.45	95	0.89
1695.60	92	0.87
1696.70	329	3.10
1698.10	158	1.49
1698.95	236	2.22
1699.80	464	4.37
1701.00	85	0.80
1701.90	115	1.08
1703.15	447	4.21
1704.10	315	2.97
1705.15	287	2.70
1705.55	155	1.46
1706.40	178	1.68
1707.35	296	2.79
1708.35	66	0.62
1708.70	64	0.60
1709.45	417	3.93
1710.50	157	1.48
1710.90	45	0.42
1711.60	170	1.60
1712.60	230	2.17
1713.00	139	1.31
1713.85	230	2.17
1714.85	199	1.87
1715.80	69	0.65
1716.10	98	0.92
1717.10	303	2.85
1718.05	76	0.72
1719.25	209	1.97
1720.45	195	1.84
1721.20	116	1.09
1722.25	96	0.90
1722.65	201	1.89
1723.45	242	2.28
1724.50	282	2.66
1725.50	169	1.59
1726.65	290	2.73
1727.55	110	1.04
1729.00	158	1.49
1729.80	215	2.02
1731.90	106	1.00
1732.30	41	0.39
1733.05	76	0.72
1734.20	289	2.72
1735.30	429	4.04
1736.20	94	0.89
1737.35	114	1.07
1738.55	236	2.22
1739.45	318	2.99
1740.75	35	0.33
1741.65	613	5.77
1742.60	316	2.98
1743.80	268	2.52
1744.80	245	2.31
1745.70	21	0.20
1746.95	200	1.88
1748.35	122	1.15
1749.25	255	2.40
1750.10	169	1.59
1750.45	101	0.95
1751.25	205	1.93
1752.25	94	0.89
1753.45	288	2.71
1754.40	286	2.69
1755.45	191	1.80
1756.70	184	1.73
1757.55	221	2.08
1758.65	176	1.66
1758.95	136	1.28
1759.75	89	0.84
1762.05	150	1.41
1763.00	201	1.89
1764.20	148	1.39
1765.20	20	0.19
1766.35	312	2.94
1767.30	193	1.82
1768.60	34	0.32
1769.55	92	0.87
1770.45	224	2.11
1771.65	364	3.43
1772.65	160	1.51
1774.00	87	0.82
1774.75	236	2.22
1775.05	194	1.83
1776.10	89	0.84
1777.10	207	1.95
1778.10	280	2.64
1779.20	133	1.25
1780.15	296	2.79
1781.45	188	1.77
1782.20	104	0.98
1783.45	370	3.48
1784.35	103	0.97
1785.70	33	0.31
1786.65	426	4.01
1787.70	29	0.27
1788.80	517	4.87
1789.70	397	3.74
1792.10	170	1.60
1792.80	202	1.90
1794.10	176	1.66
1795.15	119	1.12
1795.45	91	0.86
1796.30	65	0.61
1797.15	254	2.39
1798.55	194	1.83
1799.50	114	1.07
1800.35	198	1.86
1800.75	58	0.55
1801.55	337	3.17
1802.60	238	2.24
1803.65	235	2.21
1804.70	58	0.55
1805.70	39	0.37
1807.10	159	1.50
1807.90	193	1.82
1808.30	123	1.16
1809.15	227	2.14
1810.00	64	0.60
1811.05	102	0.96
1811.40	160	1.51
1812.25	218	2.05
1813.20	4	0.04
1814.35	202	1.90
1815.40	317	2.99
1816.45	170	1.60
1816.80	184	1.73
1817.50	258	2.43
1818.55	87	0.82
1819.65	153	1.44
1820.00	149	1.40
1820.60	145	1.37
1821.85	510	4.80
1822.85	461	4.34
1823.50	10	0.09
1824.25	56	0.53
1825.05	297	2.80
1826.05	271	2.55
1827.20	319	3.00
1828.15	123	1.16
1828.55	74	0.70
1829.20	172	1.62
1830.20	90	0.85
1831.50	406	3.82
1832.45	192	1.81
1833.60	289	2.72
1834.55	417	3.93
1835.60	160	1.51
1836.75	114	1.07
1837.85	322	3.03
1838.75	81	0.76
1839.80	51	0.48
1841.00	198	1.86
1842.20	240	2.26
1843.10	139	1.31
1844.20	271	2.55
1845.25	277	2.61
1846.45	410	3.86
1847.40	262	2.47
1848.60	156	1.47
1849.60	296	2.79
1850.60	97	0.91
1851.75	250	2.35
1852.70	183	1.72
1853.90	73	0.69
1854.95	255	2.40
1856.00	153	1.44
1857.10	227	2.14
1858.15	340	3.20
1859.15	177	1.67
1860.20	322	3.03
1861.40	680	6.40
1862.30	248	2.34
1863.55	272	2.56
1864.50	240	2.26
1865.50	250	2.35
1866.65	549	5.17
1867.60	198	1.86
1868.65	156	1.47
1869.90	196	1.85
1870.90	229	2.16
1872.05	109	1.03
1873.10	226	2.13
1874.05	253	2.38
1875.20	462	4.35
1876.35	545	5.13
1877.35	188	1.77
1878.35	168	1.58
1879.50	358	3.37
1880.50	133	1.25
1881.60	192	1.81
1882.65	256	2.41
1883.70	270	2.54
1884.85	244	2.30
1885.85	194	1.83
1887.00	105	0.99
1887.95	139	1.31
1889.20	507	4.77
1890.20	207	1.95
1891.20	202	1.90
1892.25	188	1.77
1893.35	423	3.98
1894.40	380	3.58
1895.30	106	1.00
1896.60	138	1.30
1897.00	52	0.49
1897.60	206	1.94
1898.75	469	4.42
1899.90	220	2.07
1900.80	230	2.17
1901.95	225	2.12
1903.05	338	3.18
1904.10	488	4.60
1905.15	248	2.34
1906.20	484	4.56
1907.30	259	2.44
1908.30	332	3.13
1909.40	307	2.89
1910.50	240	2.26
1911.50	289	2.72
1912.55	188	1.77
1912.80	121	1.14
1913.70	371	3.49
1914.60	48	0.45
1915.80	204	1.92
1916.90	260	2.45
1918.00	286	2.69
1919.00	219	2.06
1920.20	274	2.58
1921.25	342	3.22
1922.35	300	2.83
1923.30	197	1.86
1924.45	274	2.58
1925.45	165	1.55
1926.50	209	1.97
1927.60	288	2.71
1928.55	173	1.63
1929.75	446	4.20
1930.75	215	2.02
1931.80	175	1.65
1932.95	295	2.78
1934.00	242	2.28
1935.10	227	2.14
1936.10	313	2.95
1937.25	208	1.96
1938.30	138	1.30
1939.25	233	2.19
1940.45	315	2.97
1941.35	326	3.07
1942.60	402	3.79
1943.55	404	3.80
1944.65	376	3.54
1945.70	364	3.43
1946.75	162	1.53
1947.95	410	3.86
1949.00	393	3.70
1950.05	247	2.33
1951.15	336	3.16
1952.25	260	2.45
1953.25	301	2.83
1954.20	140	1.32
1955.35	240	2.26
1956.55	299	2.82
1957.55	283	2.67
1958.55	263	2.48
1959.65	235	2.21
1960.80	272	2.56
1961.90	95	0.89
1962.95	233	2.19
1964.00	426	4.01
1965.15	241	2.27
1966.10	84	0.79
1967.20	201	1.89
1968.25	212	2.00
1969.30	163	1.53
1970.45	301	2.83
1971.45	236	2.22
1972.60	397	3.74
1973.55	195	1.84
1974.80	262	2.47
1975.80	325	3.06
1976.95	101	0.95
1977.85	222	2.09
1978.90	313	2.95
1980.10	230	2.17
1981.25	342	3.22
1982.30	208	1.96
1983.30	239	2.25
1984.35	268	2.52
1985.45	404	3.80
1986.45	166	1.56
1987.55	103	0.97
1988.55	437	4.12
1989.65	136	1.28
1990.70	448	4.22
1991.70	7	0.07
1992.90	522	4.92
1993.90	168	1.58
1995.10	212	2.00
1996.10	203	1.91
1997.05	351	3.31
1998.30	305	2.87
1999.45	83	0.78
Event	2
