[MS Spectrum]
# of Peaks	2011
Raw Spectrum	[6.689],(scan:[2008])
Background	No Background Spectrum
Base Peak	m/z 61.35 (Inten : 16,129)
m/z	Absolute Intensity	Relative Intensity
50.20	7128	44.19
51.20	4551	28.22
52.75	12644	78.39
53.30	2395	14.85
54.30	5792	35.91
55.30	6205	38.47
56.40	7083	43.91
57.70	8635	53.54
58.50	2608	16.17
59.50	2635	16.34
60.50	2586	16.03
61.35	16129	100.00
63.10	6053	37.53
63.70	2496	15.48
65.00	10563	65.49
66.30	4658	28.88
67.00	2248	13.94
67.75	11651	72.24
68.80	1989	12.33
70.65	12630	78.31
71.30	2099	13.01
72.30	1935	12.00
73.40	6749	41.84
74.55	3958	24.54
75.65	5608	34.77
77.25	7749	48.04
77.80	1682	10.43
78.90	5352	33.18
80.25	5205	32.27
81.25	2760	17.11
82.05	3377	20.94
83.20	5134	31.83
84.35	3390	21.02
85.80	7177	44.50
86.30	1533	9.50
87.35	3703	22.96
88.45	3986	24.71
89.50	3163	19.61
90.65	4373	27.11
91.75	2940	18.23
92.65	2283	14.15
93.70	4032	25.00
94.85	2709	16.80
95.90	3366	20.87
97.00	2918	18.09
98.00	2889	17.91
99.20	2269	14.07
100.20	3593	22.28
101.35	2518	15.61
102.40	2306	14.30
103.40	3507	21.74
104.50	2332	14.46
105.60	2938	18.22
106.65	2048	12.70
107.60	2146	13.31
108.70	2755	17.08
109.90	2698	16.73
110.70	1620	10.04
111.20	883	5.47
112.00	2219	13.76
112.90	795	4.93
114.10	2264	14.04
115.65	4670	28.95
116.40	796	4.94
117.35	1991	12.34
118.45	2567	15.92
119.45	1804	11.18
120.40	1951	12.10
121.50	2157	13.37
122.65	1881	11.66
123.50	1139	7.06
124.00	580	3.60
124.75	1681	10.42
125.70	1095	6.79
126.95	2087	12.94
127.95	1475	9.15
129.00	1780	11.04
130.15	1750	10.85
131.15	1696	10.52
132.25	1121	6.95
133.25	2082	12.91
134.15	662	4.10
134.65	605	3.75
135.45	1703	10.56
136.50	2002	12.41
137.55	1390	8.62
138.35	981	6.08
138.90	822	5.10
139.70	1629	10.10
140.55	1167	7.24
141.90	1491	9.24
142.90	1680	10.42
143.80	884	5.48
144.30	527	3.27
145.05	1627	10.09
146.05	1198	7.43
147.20	1416	8.78
148.25	1443	8.95
149.35	1075	6.67
150.40	1303	8.08
151.50	1385	8.59
152.50	1160	7.19
153.55	1261	7.82
154.55	1547	9.59
155.70	857	5.31
156.80	1123	6.96
157.95	1272	7.89
158.85	1136	7.04
160.05	1518	9.41
161.15	1315	8.15
162.25	939	5.82
163.15	1316	8.16
164.20	1379	8.55
165.35	953	5.91
165.85	242	1.50
166.45	1035	6.42
167.40	1047	6.49
168.55	1024	6.35
169.65	1092	6.77
170.65	805	4.99
171.65	1220	7.56
172.85	957	5.93
173.75	649	4.02
174.15	351	2.18
175.00	931	5.77
175.85	998	6.19
177.10	768	4.76
178.15	1101	6.83
179.20	1363	8.45
180.30	678	4.20
181.35	1014	6.29
182.35	817	5.07
183.50	1033	6.40
184.60	968	6.00
185.55	656	4.07
186.65	1062	6.58
187.85	1117	6.93
188.80	879	5.45
189.95	954	5.91
190.95	998	6.19
192.05	683	4.23
193.15	1023	6.34
194.20	828	5.13
195.25	872	5.41
196.25	1054	6.53
197.40	730	4.53
198.45	592	3.67
199.50	755	4.68
200.50	849	5.26
201.60	493	3.06
202.70	825	5.12
203.70	627	3.89
204.75	719	4.46
205.85	684	4.24
207.10	793	4.92
208.05	642	3.98
209.10	746	4.63
210.25	711	4.41
211.30	477	2.96
212.35	711	4.41
213.45	651	4.04
214.50	386	2.39
215.55	925	5.74
216.65	839	5.20
217.65	537	3.33
218.70	553	3.43
219.85	707	4.38
220.20	174	1.08
220.90	603	3.74
221.95	486	3.01
222.45	131	0.81
223.00	556	3.45
224.15	889	5.51
225.25	684	4.24
226.20	498	3.09
227.30	728	4.51
228.40	519	3.22
229.50	650	4.03
230.45	585	3.63
231.60	811	5.03
232.65	729	4.52
233.70	474	2.94
234.80	463	2.87
235.85	584	3.62
236.85	456	2.83
237.30	210	1.30
237.95	623	3.86
239.00	421	2.61
240.15	586	3.63
241.25	537	3.33
242.25	675	4.19
243.40	1138	7.06
244.40	794	4.92
245.45	688	4.27
246.60	437	2.71
247.65	719	4.46
248.60	317	1.97
249.85	546	3.39
250.80	573	3.55
251.80	394	2.44
252.25	87	0.54
253.00	622	3.86
254.00	465	2.88
255.20	477	2.96
256.15	409	2.54
257.20	675	4.19
258.30	510	3.16
259.45	768	4.76
260.45	503	3.12
261.55	595	3.69
262.60	731	4.53
263.65	474	2.94
264.75	704	4.36
265.70	563	3.49
266.90	640	3.97
267.95	737	4.57
269.00	562	3.48
270.00	521	3.23
271.20	780	4.84
272.20	784	4.86
273.40	560	3.47
274.40	689	4.27
275.45	623	3.86
276.55	426	2.64
277.55	819	5.08
278.60	469	2.91
279.75	632	3.92
280.75	702	4.35
281.80	433	2.68
282.90	574	3.56
284.05	439	2.72
285.10	523	3.24
286.15	710	4.40
287.20	752	4.66
288.30	535	3.32
289.40	589	3.65
290.35	611	3.79
291.45	517	3.21
292.60	932	5.78
293.60	303	1.88
294.65	476	2.95
295.80	780	4.84
296.85	603	3.74
297.95	633	3.92
299.05	573	3.55
300.10	705	4.37
301.15	627	3.89
302.15	564	3.50
303.35	299	1.85
304.35	568	3.52
305.45	653	4.05
306.55	479	2.97
307.60	722	4.48
308.60	503	3.12
309.70	717	4.45
310.85	544	3.37
311.90	418	2.59
312.95	769	4.77
314.00	466	2.89
315.05	404	2.50
316.10	447	2.77
316.95	2486	15.41
318.30	886	5.49
319.40	418	2.59
320.50	389	2.41
321.45	617	3.83
322.90	1009	6.26
323.60	264	1.64
324.70	510	3.16
325.85	536	3.32
326.85	282	1.75
327.90	486	3.01
328.95	584	3.62
330.10	277	1.72
331.15	422	2.62
332.10	1071	6.64
333.30	438	2.72
334.35	459	2.85
335.45	414	2.57
336.45	381	2.36
337.55	1262	7.82
338.60	475	2.95
339.70	340	2.11
340.85	342	2.12
341.80	437	2.71
342.90	646	4.01
343.95	514	3.19
345.25	380	2.36
346.10	535	3.32
347.15	429	2.66
348.30	317	1.97
349.35	487	3.02
350.35	361	2.24
351.45	388	2.41
352.80	1457	9.03
353.55	366	2.27
354.65	501	3.11
355.80	584	3.62
356.75	340	2.11
357.90	285	1.77
358.90	373	2.31
359.45	37	0.23
360.15	201	1.25
361.10	371	2.30
361.95	243	1.51
363.25	377	2.34
364.30	416	2.58
365.40	303	1.88
366.45	444	2.75
367.40	231	1.43
368.65	507	3.14
369.70	377	2.34
370.70	397	2.46
371.70	339	2.10
372.95	487	3.02
373.85	470	2.91
374.55	26	0.16
375.10	133	0.82
376.00	170	1.05
377.15	396	2.46
378.30	332	2.06
378.80	163	1.01
379.40	351	2.18
379.95	155	0.96
380.40	108	0.67
381.50	436	2.70
382.00	173	1.07
382.75	1227	7.61
383.60	184	1.14
384.70	115	0.71
385.70	253	1.57
386.20	54	0.33
386.75	125	0.78
387.40	150	0.93
387.90	255	1.58
389.00	142	0.88
389.55	139	0.86
390.65	179	1.11
391.10	44	0.27
391.80	248	1.54
392.25	327	2.03
393.30	249	1.54
393.90	120	0.74
394.40	205	1.27
394.95	127	0.79
395.55	223	1.38
396.35	449	2.78
397.10	174	1.08
397.65	426	2.64
398.05	136	0.84
399.40	86	0.53
400.30	68	0.42
401.40	224	1.39
402.35	146	0.91
403.00	124	0.77
404.00	328	2.03
405.70	129	0.80
406.15	77	0.48
406.75	97	0.60
407.30	122	0.76
407.70	43	0.27
408.60	32	0.20
409.40	215	1.33
409.95	152	0.94
410.90	13	0.08
412.10	197	1.22
412.55	177	1.10
413.15	153	0.95
413.65	67	0.42
414.30	129	0.80
414.75	86	0.53
415.55	1195	7.41
416.70	114	0.71
417.40	116	0.72
418.50	391	2.42
419.15	398	2.47
419.60	204	1.26
420.20	142	0.88
420.60	69	0.43
421.20	272	1.69
421.70	199	1.23
422.35	147	0.91
422.75	275	1.71
423.90	166	1.03
424.35	111	0.69
425.05	148	0.92
425.45	119	0.74
426.35	300	1.86
427.15	51	0.32
427.55	210	1.30
428.70	85	0.53
429.85	250	1.55
430.35	471	2.92
431.15	1038	6.44
432.45	92	0.57
433.60	190	1.18
434.35	529	3.28
435.20	95	0.59
435.65	218	1.35
436.25	198	1.23
436.70	100	0.62
437.25	164	1.02
438.30	115	0.71
439.45	170	1.05
439.85	290	1.80
440.80	9	0.06
441.65	304	1.88
442.05	139	0.86
442.65	261	1.62
443.25	137	0.85
443.60	236	1.46
444.70	137	0.85
446.40	133	0.82
446.85	143	0.89
447.45	269	1.67
448.60	349	2.16
449.00	165	1.02
450.20	141	0.87
450.60	55	0.34
451.20	80	0.50
451.85	99	0.61
452.35	260	1.61
452.85	58	0.36
453.25	141	0.87
454.45	529	3.28
455.55	146	0.91
456.55	55	0.34
457.05	247	1.53
457.50	97	0.60
458.25	236	1.46
459.00	6	0.04
459.85	275	1.71
460.25	289	1.79
460.80	221	1.37
461.55	408	2.53
462.95	251	1.56
463.50	155	0.96
464.05	380	2.36
464.50	200	1.24
465.30	150	0.93
465.65	60	0.37
466.30	250	1.55
466.70	229	1.42
467.20	248	1.54
467.70	92	0.57
468.35	296	1.84
468.90	140	0.87
469.35	224	1.39
469.95	274	1.70
470.50	341	2.11
471.50	354	2.19
472.50	410	2.54
473.20	133	0.82
473.65	222	1.38
474.30	140	0.87
474.85	59	0.37
475.30	141	0.87
476.40	330	2.05
477.80	349	2.16
478.60	106	0.66
479.10	116	0.72
480.40	197	1.22
481.30	245	1.52
481.70	160	0.99
482.25	52	0.32
482.70	90	0.56
483.30	155	0.96
484.40	72	0.45
485.50	96	0.60
486.50	61	0.38
487.15	373	2.31
487.60	135	0.84
488.60	112	0.69
489.50	33	0.20
490.35	110	0.68
491.30	37	0.23
492.45	137	0.85
493.50	351	2.18
494.55	278	1.72
495.65	724	4.49
496.80	431	2.67
498.00	160	0.99
499.00	246	1.53
500.15	652	4.04
501.20	438	2.72
502.25	449	2.78
503.25	303	1.88
504.45	375	2.33
505.45	658	4.08
506.50	228	1.41
507.60	265	1.64
508.75	373	2.31
509.70	512	3.17
510.85	468	2.90
511.95	327	2.03
513.10	289	1.79
514.10	404	2.50
515.20	688	4.27
516.30	377	2.34
517.30	351	2.18
518.35	193	1.20
519.50	250	1.55
520.50	193	1.20
521.60	345	2.14
522.80	512	3.17
523.70	341	2.11
524.90	420	2.60
525.90	272	1.69
526.90	430	2.67
528.15	352	2.18
529.10	331	2.05
530.20	306	1.90
531.30	312	1.93
532.25	353	2.19
533.45	259	1.61
534.50	339	2.10
535.50	353	2.19
536.60	208	1.29
537.70	507	3.14
538.70	282	1.75
539.80	136	0.84
540.90	229	1.42
541.95	426	2.64
543.15	374	2.32
544.10	401	2.49
545.15	204	1.26
546.25	360	2.23
547.30	323	2.00
548.35	438	2.72
549.40	195	1.21
550.50	337	2.09
551.55	288	1.79
552.70	382	2.37
553.75	334	2.07
554.75	338	2.10
555.90	403	2.50
556.85	107	0.66
557.95	237	1.47
559.10	394	2.44
560.15	302	1.87
561.20	270	1.67
562.35	351	2.18
563.35	194	1.20
564.45	288	1.79
565.50	447	2.77
566.55	340	2.11
567.60	27	0.17
568.65	218	1.35
569.75	317	1.97
570.85	328	2.03
571.90	384	2.38
573.00	479	2.97
574.10	463	2.87
575.10	455	2.82
576.30	488	3.03
577.35	498	3.09
578.35	352	2.18
579.40	215	1.33
580.45	404	2.50
581.50	480	2.98
582.55	234	1.45
583.65	252	1.56
584.75	258	1.60
585.85	475	2.95
586.90	395	2.45
587.95	392	2.43
589.05	522	3.24
590.10	635	3.94
591.20	431	2.67
592.30	558	3.46
593.35	336	2.08
594.50	389	2.41
595.40	558	3.46
596.55	282	1.75
597.60	393	2.44
598.70	566	3.51
599.75	186	1.15
600.80	284	1.76
601.85	393	2.44
602.95	167	1.04
604.00	443	2.75
605.10	405	2.51
606.20	499	3.09
607.20	141	0.87
608.25	253	1.57
609.35	349	2.16
610.50	492	3.05
611.55	253	1.57
612.55	1245	7.72
613.60	299	1.85
614.65	273	1.69
615.80	275	1.71
616.90	275	1.71
617.80	255	1.58
618.95	314	1.95
620.05	236	1.46
621.20	372	2.31
622.20	398	2.47
623.30	639	3.96
624.40	400	2.48
625.45	511	3.17
626.45	226	1.40
627.50	310	1.92
628.70	394	2.44
629.70	271	1.68
630.80	384	2.38
631.80	352	2.18
632.95	234	1.45
633.95	315	1.95
635.00	485	3.01
636.15	226	1.40
637.15	319	1.98
638.40	1175	7.29
639.30	107	0.66
640.40	237	1.47
641.45	136	0.84
642.45	220	1.36
643.60	399	2.47
644.70	131	0.81
645.70	147	0.91
646.80	221	1.37
647.80	219	1.36
649.05	238	1.48
650.05	455	2.82
651.00	202	1.25
652.15	519	3.22
653.20	421	2.61
654.40	244	1.51
655.40	402	2.49
656.45	300	1.86
657.55	324	2.01
658.60	287	1.78
659.65	325	2.02
660.75	338	2.10
661.85	537	3.33
662.80	136	0.84
663.90	174	1.08
665.00	572	3.55
666.15	293	1.82
667.20	469	2.91
668.25	371	2.30
669.30	486	3.01
670.40	408	2.53
671.45	227	1.41
672.50	477	2.96
673.50	312	1.93
674.65	252	1.56
675.70	198	1.23
676.80	395	2.45
677.85	363	2.25
679.00	265	1.64
680.00	392	2.43
681.10	248	1.54
682.15	422	2.62
683.25	209	1.30
684.30	241	1.49
685.55	2023	12.54
686.45	281	1.74
687.60	549	3.40
688.55	279	1.73
689.60	296	1.84
691.10	2015	12.49
691.80	485	3.01
692.80	131	0.81
694.20	411	2.55
694.90	402	2.49
696.25	157	0.97
697.20	334	2.07
698.15	200	1.24
699.25	200	1.24
700.35	353	2.19
701.45	198	1.23
702.45	200	1.24
703.55	408	2.53
704.60	86	0.53
705.70	314	1.95
706.75	141	0.87
707.10	162	1.00
707.80	248	1.54
708.90	314	1.95
710.05	275	1.71
711.20	252	1.56
712.25	581	3.60
713.15	159	0.99
714.10	5	0.03
715.00	42	0.26
715.35	135	0.84
716.50	102	0.63
716.85	36	0.22
717.40	123	0.76
718.55	188	1.17
719.50	53	0.33
720.35	82	0.51
720.85	150	0.93
721.90	245	1.52
722.25	118	0.73
722.80	64	0.40
724.30	279	1.73
725.10	87	0.54
725.55	110	0.68
726.55	130	0.81
727.80	130	0.81
728.50	167	1.04
729.85	48	0.30
730.35	71	0.44
730.75	99	0.61
731.50	130	0.81
732.30	174	1.08
733.10	17	0.11
733.95	104	0.64
734.90	7	0.04
735.80	110	0.68
736.80	105	0.65
737.20	89	0.55
738.00	75	0.47
739.35	250	1.55
740.70	97	0.60
741.10	109	0.68
742.25	170	1.05
742.65	72	0.45
743.15	33	0.20
743.60	133	0.82
744.40	161	1.00
745.45	440	2.73
746.80	314	1.95
747.95	83	0.51
748.90	30	0.19
749.70	76	0.47
750.20	140	0.87
751.00	184	1.14
751.90	112	0.69
752.25	53	0.33
753.30	65	0.40
754.30	221	1.37
755.40	337	2.09
756.40	115	0.71
757.45	284	1.76
758.25	115	0.71
758.65	229	1.42
759.75	257	1.59
760.60	178	1.10
761.60	110	0.68
762.55	163	1.01
763.05	122	0.76
764.05	242	1.50
764.65	76	0.47
765.80	65	0.40
766.15	66	0.41
767.00	226	1.40
768.20	140	0.87
769.30	313	1.94
770.45	43	0.27
771.30	288	1.79
772.35	359	2.23
773.60	115	0.71
774.50	106	0.66
775.35	425	2.64
776.55	208	1.29
777.55	209	1.30
778.55	46	0.29
779.05	47	0.29
779.70	233	1.44
780.10	131	0.81
780.50	24	0.15
781.90	541	3.35
783.30	171	1.06
783.95	40	0.25
784.35	15	0.09
785.40	221	1.37
786.30	141	0.87
787.20	197	1.22
787.60	160	0.99
788.05	206	1.28
789.55	286	1.77
790.30	148	0.92
790.80	110	0.68
791.35	285	1.77
791.70	91	0.56
792.45	182	1.13
792.90	29	0.18
793.90	122	0.76
794.60	90	0.56
796.10	275	1.71
796.65	138	0.86
797.10	68	0.42
798.10	23	0.14
799.95	255	1.58
801.35	176	1.09
802.10	245	1.52
802.45	105	0.65
803.50	150	0.93
804.40	149	0.92
804.75	66	0.41
805.25	119	0.74
805.65	197	1.22
806.60	332	2.06
807.90	82	0.51
808.40	136	0.84
808.90	197	1.22
809.90	6	0.04
810.90	189	1.17
812.15	130	0.81
813.30	126	0.78
814.00	368	2.28
815.05	258	1.60
816.45	258	1.60
817.30	336	2.08
818.00	32	0.20
818.50	152	0.94
819.45	138	0.86
820.75	132	0.82
821.35	66	0.41
821.65	34	0.21
822.45	35	0.22
823.05	269	1.67
823.90	189	1.17
824.90	147	0.91
826.05	218	1.35
827.10	324	2.01
828.40	206	1.28
829.25	389	2.41
830.20	232	1.44
831.35	92	0.57
832.50	398	2.47
833.60	167	1.04
834.60	115	0.71
835.65	235	1.46
836.75	172	1.07
837.90	161	1.00
838.75	400	2.48
839.80	4	0.02
841.10	205	1.27
842.05	268	1.66
843.30	92	0.57
844.30	204	1.26
845.05	351	2.18
846.40	233	1.44
846.95	131	0.81
847.45	166	1.03
848.55	76	0.47
849.50	28	0.17
850.70	235	1.46
851.65	178	1.10
852.75	297	1.84
853.90	166	1.03
854.95	126	0.78
856.10	222	1.38
857.10	122	0.76
858.25	162	1.00
859.25	405	2.51
860.50	233	1.44
861.35	254	1.57
862.50	300	1.86
863.50	253	1.57
864.55	243	1.51
865.75	388	2.41
866.75	645	4.00
867.90	380	2.36
868.50	41	0.25
868.95	154	0.95
869.90	29	0.18
870.75	140	0.87
871.15	254	1.57
871.85	627	3.89
873.20	228	1.41
874.25	284	1.76
875.35	148	0.92
876.35	334	2.07
877.55	427	2.65
878.50	416	2.58
879.55	392	2.43
880.70	450	2.79
881.65	153	0.95
882.90	217	1.35
883.85	278	1.72
884.90	13	0.08
886.15	125	0.78
887.05	231	1.43
888.20	191	1.18
889.20	366	2.27
890.35	213	1.32
891.40	59	0.37
892.40	231	1.43
893.40	316	1.96
894.65	213	1.32
895.60	334	2.07
896.60	335	2.08
897.90	261	1.62
898.90	405	2.51
899.65	136	0.84
900.05	54	0.33
900.95	458	2.84
902.00	232	1.44
903.20	277	1.72
904.20	355	2.20
905.30	194	1.20
906.35	359	2.23
907.40	231	1.43
908.55	364	2.26
909.35	147	0.91
909.65	134	0.83
910.50	205	1.27
911.55	264	1.64
912.80	460	2.85
913.75	494	3.06
914.75	110	0.68
915.95	221	1.37
917.05	302	1.87
918.25	311	1.93
919.15	239	1.48
920.25	366	2.27
921.35	185	1.15
922.40	568	3.52
923.30	20	0.12
924.45	278	1.72
925.65	506	3.14
926.60	96	0.60
927.80	301	1.87
928.85	262	1.62
929.80	110	0.68
930.75	1191	7.38
931.95	252	1.56
933.15	194	1.20
934.15	377	2.34
935.20	255	1.58
936.30	333	2.06
937.35	457	2.83
938.45	423	2.62
939.50	92	0.57
940.60	409	2.54
941.70	260	1.61
942.85	333	2.06
943.75	204	1.26
944.70	75	0.47
945.10	55	0.34
946.05	313	1.94
947.05	299	1.85
948.25	78	0.48
949.20	460	2.85
950.30	266	1.65
951.35	403	2.50
952.45	243	1.51
953.50	298	1.85
954.60	446	2.77
955.70	343	2.13
956.60	141	0.87
957.75	327	2.03
958.80	464	2.88
959.85	315	1.95
960.90	490	3.04
962.05	285	1.77
963.15	195	1.21
964.20	272	1.69
965.35	173	1.07
966.35	329	2.04
967.40	188	1.17
968.50	414	2.57
969.55	375	2.33
970.55	363	2.25
971.60	198	1.23
972.75	304	1.88
973.85	502	3.11
974.95	123	0.76
976.05	294	1.82
976.95	192	1.19
978.15	451	2.80
979.15	300	1.86
980.30	188	1.17
981.30	376	2.33
982.40	258	1.60
983.45	288	1.79
984.50	158	0.98
985.60	356	2.21
986.60	185	1.15
987.80	340	2.11
988.90	534	3.31
990.00	339	2.10
991.05	343	2.13
992.05	398	2.47
993.20	343	2.13
994.25	318	1.97
995.30	253	1.57
996.30	512	3.17
997.35	344	2.13
998.45	185	1.15
999.55	168	1.04
1000.65	220	1.36
1001.65	299	1.85
1002.80	393	2.44
1003.80	253	1.57
1005.00	199	1.23
1006.00	213	1.32
1007.10	457	2.83
1008.15	167	1.04
1008.95	1240	7.69
1010.20	390	2.42
1011.35	322	2.00
1012.50	274	1.70
1013.50	207	1.28
1014.55	211	1.31
1015.65	403	2.50
1016.60	241	1.49
1017.75	165	1.02
1018.80	230	1.43
1020.00	154	0.95
1021.00	176	1.09
1022.00	94	0.58
1023.20	178	1.10
1024.25	238	1.48
1025.30	231	1.43
1026.35	373	2.31
1027.55	324	2.01
1028.55	392	2.43
1029.60	144	0.89
1030.60	374	2.32
1031.65	224	1.39
1032.80	266	1.65
1033.80	176	1.09
1034.90	329	2.04
1036.05	144	0.89
1037.05	203	1.26
1038.25	423	2.62
1039.25	258	1.60
1040.30	385	2.39
1041.40	254	1.57
1042.55	445	2.76
1043.45	273	1.69
1044.45	290	1.80
1045.65	277	1.72
1046.60	123	0.76
1047.80	444	2.75
1048.80	320	1.98
1049.95	188	1.17
1051.05	218	1.35
1052.05	371	2.30
1053.15	391	2.42
1054.25	206	1.28
1055.20	160	0.99
1056.30	252	1.56
1057.45	458	2.84
1058.45	305	1.89
1059.50	315	1.95
1060.65	436	2.70
1061.65	226	1.40
1062.75	517	3.21
1063.75	224	1.39
1064.90	345	2.14
1065.95	247	1.53
1067.00	223	1.38
1068.10	167	1.04
1069.15	501	3.11
1070.25	421	2.61
1071.30	199	1.23
1072.40	663	4.11
1073.40	274	1.70
1074.55	589	3.65
1075.65	408	2.53
1076.65	253	1.57
1077.70	349	2.16
1078.80	407	2.52
1079.90	306	1.90
1081.00	248	1.54
1081.90	427	2.65
1083.15	317	1.97
1084.15	294	1.82
1085.25	322	2.00
1086.30	356	2.21
1087.35	439	2.72
1088.45	282	1.75
1089.45	250	1.55
1090.60	177	1.10
1091.60	172	1.07
1092.75	243	1.51
1093.80	264	1.64
1094.75	128	0.79
1095.95	219	1.36
1097.00	289	1.79
1098.05	958	5.94
1099.25	117	0.73
1100.25	248	1.54
1101.20	57	0.35
1102.30	384	2.38
1103.45	206	1.28
1104.50	263	1.63
1105.55	310	1.92
1106.60	195	1.21
1107.70	265	1.64
1108.75	328	2.03
1109.80	352	2.18
1110.95	278	1.72
1111.90	40	0.25
1113.15	279	1.73
1114.15	284	1.76
1115.10	279	1.73
1116.35	126	0.78
1117.45	128	0.79
1118.45	229	1.42
1119.45	201	1.25
1120.55	253	1.57
1121.65	355	2.20
1122.70	138	0.86
1123.70	415	2.57
1124.75	158	0.98
1125.90	319	1.98
1127.05	529	3.28
1128.05	194	1.20
1129.05	232	1.44
1130.15	367	2.28
1131.25	228	1.41
1132.25	288	1.79
1133.25	322	2.00
1134.35	311	1.93
1135.10	10	0.06
1135.85	1045	6.48
1136.80	28	0.17
1137.45	253	1.57
1138.65	340	2.11
1139.65	308	1.91
1140.90	143	0.89
1141.85	163	1.01
1142.80	1	0.01
1144.00	98	0.61
1145.15	166	1.03
1146.20	168	1.04
1147.15	332	2.06
1148.30	176	1.09
1149.35	161	1.00
1150.50	419	2.60
1151.45	155	0.96
1152.55	373	2.31
1153.60	205	1.27
1154.70	167	1.04
1155.85	108	0.67
1156.85	435	2.70
1157.80	302	1.87
1158.90	192	1.19
1160.10	233	1.44
1161.25	194	1.20
1162.10	345	2.14
1163.20	277	1.72
1164.35	116	0.72
1165.40	277	1.72
1166.45	184	1.14
1167.50	190	1.18
1168.65	307	1.90
1169.70	129	0.80
1171.80	113	0.70
1172.90	158	0.98
1174.00	154	0.95
1174.90	247	1.53
1176.00	25	0.16
1177.20	400	2.48
1177.65	78	0.48
1178.20	121	0.75
1179.30	204	1.26
1180.25	266	1.65
1181.35	197	1.22
1182.45	224	1.39
1183.10	104	0.64
1183.55	199	1.23
1184.60	167	1.04
1185.65	195	1.21
1186.70	373	2.31
1187.70	55	0.34
1188.95	190	1.18
1190.00	165	1.02
1191.05	106	0.66
1191.70	70	0.43
1192.15	99	0.61
1193.10	145	0.90
1194.35	155	0.96
1195.15	251	1.56
1196.35	211	1.31
1197.45	264	1.64
1198.50	187	1.16
1199.55	246	1.53
1200.45	503	3.12
1201.75	426	2.64
1202.80	16	0.10
1203.90	327	2.03
1204.85	559	3.47
1206.10	154	0.95
1207.15	292	1.81
1208.10	86	0.53
1209.30	231	1.43
1210.15	318	1.97
1211.45	177	1.10
1212.40	12	0.07
1213.40	4	0.02
1214.50	200	1.24
1215.50	62	0.38
1216.60	273	1.69
1217.75	209	1.30
1218.60	457	2.83
1219.75	223	1.38
1221.05	135	0.84
1222.05	114	0.71
1222.55	50	0.31
1223.15	116	0.72
1224.25	114	0.71
1225.40	203	1.26
1225.80	193	1.20
1226.40	106	0.66
1227.45	197	1.22
1228.55	203	1.26
1229.05	86	0.53
1229.90	14	0.09
1230.70	163	1.01
1231.15	192	1.19
1231.75	250	1.55
1233.90	152	0.94
1234.50	246	1.53
1234.85	145	0.90
1235.60	209	1.30
1237.15	142	0.88
1239.30	96	0.60
1239.80	161	1.00
1240.30	93	0.58
1240.85	159	0.99
1241.45	96	0.60
1242.25	25	0.16
1243.60	239	1.48
1244.05	194	1.20
1244.55	222	1.38
1246.15	48	0.30
1246.75	52	0.32
1247.15	167	1.04
1248.10	48	0.30
1249.00	121	0.75
1249.55	68	0.42
1249.95	117	0.73
1250.40	59	0.37
1251.30	12	0.07
1252.15	140	0.87
1252.55	186	1.15
1253.55	154	0.95
1254.80	176	1.09
1255.35	129	0.80
1255.75	203	1.26
1257.20	60	0.37
1258.00	166	1.03
1258.60	297	1.84
1260.15	79	0.49
1261.55	125	0.78
1262.10	125	0.78
1263.10	23	0.14
1264.45	75	0.47
1265.50	142	0.88
1266.45	137	0.85
1267.05	46	0.29
1267.55	153	0.95
1268.60	297	1.84
1269.30	72	0.45
1269.65	174	1.08
1270.15	161	1.00
1271.40	83	0.51
1272.40	16	0.10
1273.55	186	1.15
1273.95	48	0.30
1274.90	8	0.05
1275.80	18	0.11
1276.85	278	1.72
1278.25	47	0.29
1279.00	210	1.30
1279.45	186	1.15
1280.00	80	0.50
1280.50	71	0.44
1281.20	248	1.54
1282.10	238	1.48
1282.95	207	1.28
1283.55	141	0.87
1284.25	162	1.00
1285.55	85	0.53
1286.45	136	0.84
1287.20	30	0.19
1288.05	45	0.28
1288.65	284	1.76
1289.50	42	0.26
1290.75	78	0.48
1291.65	188	1.17
1291.95	132	0.82
1293.20	53	0.33
1294.65	224	1.39
1295.55	66	0.41
1296.15	177	1.10
1297.10	287	1.78
1297.50	207	1.28
1298.10	45	0.28
1299.30	78	0.48
1299.90	234	1.45
1300.50	27	0.17
1301.45	69	0.43
1302.45	131	0.81
1302.85	184	1.14
1303.70	192	1.19
1304.55	121	0.75
1305.60	40	0.25
1306.00	81	0.50
1306.85	351	2.18
1307.80	183	1.13
1308.30	272	1.69
1308.85	159	0.99
1310.05	117	0.73
1311.20	89	0.55
1312.15	210	1.30
1313.55	290	1.80
1314.30	72	0.45
1315.20	125	0.78
1315.50	141	0.87
1316.55	130	0.81
1317.60	7	0.04
1318.70	135	0.84
1319.55	166	1.03
1320.85	190	1.18
1321.70	154	0.95
1322.85	130	0.81
1323.95	198	1.23
1324.90	50	0.31
1327.10	75	0.47
1327.85	62	0.38
1329.25	103	0.64
1330.25	136	0.84
1330.55	83	0.51
1331.40	273	1.69
1332.55	200	1.24
1333.55	496	3.08
1334.50	136	0.84
1335.60	26	0.16
1336.80	151	0.94
1337.65	73	0.45
1338.20	92	0.57
1339.00	399	2.47
1339.95	153	0.95
1341.30	61	0.38
1342.15	94	0.58
1343.25	253	1.57
1344.30	134	0.83
1345.25	60	0.37
1345.65	86	0.53
1346.35	132	0.82
1347.65	263	1.63
1348.60	202	1.25
1349.65	126	0.78
1350.70	223	1.38
1351.10	171	1.06
1351.75	329	2.04
1352.95	43	0.27
1354.00	241	1.49
1355.05	99	0.61
1356.30	413	2.56
1357.10	113	0.70
1357.55	30	0.19
1358.30	361	2.24
1359.35	219	1.36
1360.35	113	0.70
1360.60	63	0.39
1361.55	222	1.38
1362.50	178	1.10
1363.80	364	2.26
1364.60	129	0.80
1365.15	53	0.33
1365.85	291	1.80
1366.80	472	2.93
1368.20	104	0.64
1369.05	286	1.77
1369.95	165	1.02
1371.15	109	0.68
1372.15	197	1.22
1373.25	312	1.93
1374.30	150	0.93
1375.30	340	2.11
1376.35	170	1.05
1377.30	60	0.37
1378.75	218	1.35
1379.80	17	0.11
1381.00	251	1.56
1381.70	193	1.20
1382.90	248	1.54
1384.05	495	3.07
1385.05	59	0.37
1385.45	84	0.52
1386.40	124	0.77
1387.30	341	2.11
1388.55	83	0.51
1389.25	173	1.07
1389.90	88	0.55
1390.40	141	0.87
1391.45	227	1.41
1392.65	168	1.04
1393.70	274	1.70
1394.70	54	0.33
1395.80	381	2.36
1396.80	154	0.95
1397.80	134	0.83
1398.20	99	0.61
1398.95	183	1.13
1399.20	87	0.54
1400.05	31	0.19
1400.45	56	0.35
1401.15	138	0.86
1402.35	280	1.74
1403.50	104	0.64
1404.25	72	0.45
1405.30	135	0.84
1405.70	101	0.63
1406.45	123	0.76
1407.40	52	0.32
1407.75	153	0.95
1408.55	179	1.11
1409.55	78	0.48
1410.70	93	0.58
1411.95	185	1.15
1412.70	132	0.82
1413.25	88	0.55
1413.85	269	1.67
1414.95	147	0.91
1416.15	129	0.80
1417.20	70	0.43
1418.15	101	0.63
1419.10	11	0.07
1420.50	478	2.96
1421.45	239	1.48
1422.40	47	0.29
1423.60	202	1.25
1424.60	131	0.81
1425.70	350	2.17
1427.05	210	1.30
1427.95	217	1.35
1428.90	166	1.03
1429.25	77	0.48
1429.85	449	2.78
1431.15	70	0.43
1432.20	230	1.43
1433.05	316	1.96
1433.50	63	0.39
1434.25	161	1.00
1434.60	120	0.74
1435.45	411	2.55
1436.40	270	1.67
1437.40	240	1.49
1437.85	177	1.10
1438.45	310	1.92
1439.50	172	1.07
1440.30	4	0.02
1441.05	127	0.79
1441.70	182	1.13
1442.75	226	1.40
1443.15	84	0.52
1443.90	58	0.36
1444.30	43	0.27
1445.05	349	2.16
1446.15	114	0.71
1447.10	207	1.28
1447.45	50	0.31
1448.15	139	0.86
1448.50	54	0.33
1449.25	68	0.42
1450.30	419	2.60
1451.20	23	0.14
1452.45	174	1.08
1453.55	164	1.02
1454.60	182	1.13
1455.70	318	1.97
1456.70	128	0.79
1457.75	191	1.18
1458.15	54	0.33
1458.90	380	2.36
1459.85	265	1.64
1460.80	46	0.29
1461.60	7	0.04
1462.25	400	2.48
1463.15	213	1.32
1464.30	258	1.60
1465.40	492	3.05
1466.40	255	1.58
1467.40	194	1.20
1468.60	473	2.93
1469.55	232	1.44
1470.70	294	1.82
1471.70	192	1.19
1472.05	100	0.62
1472.70	241	1.49
1473.85	164	1.02
1474.85	239	1.48
1475.75	448	2.78
1477.05	102	0.63
1478.20	448	2.78
1479.30	147	0.91
1480.40	219	1.36
1481.45	105	0.65
1482.60	411	2.55
1483.65	562	3.48
1484.55	322	2.00
1485.50	70	0.43
1486.70	179	1.11
1487.75	230	1.43
1488.20	170	1.05
1488.95	315	1.95
1489.95	288	1.79
1491.10	55	0.34
1492.05	208	1.29
1493.05	210	1.30
1494.25	218	1.35
1495.25	88	0.55
1495.55	63	0.39
1496.35	95	0.59
1497.40	65	0.40
1497.80	151	0.94
1499.50	110	0.68
1500.75	140	0.87
1501.65	383	2.37
1502.05	128	0.79
1502.70	123	0.76
1503.10	57	0.35
1503.90	234	1.45
1504.85	458	2.84
1506.00	204	1.26
1507.15	203	1.26
1508.05	109	0.68
1509.30	62	0.38
1510.25	334	2.07
1511.45	315	1.95
1512.35	104	0.64
1513.30	87	0.54
1514.50	82	0.51
1515.65	277	1.72
1516.75	609	3.78
1517.70	48	0.30
1518.80	56	0.35
1519.05	59	0.37
1519.75	234	1.45
1521.00	167	1.04
1522.25	381	2.36
1523.05	108	0.67
1523.40	132	0.82
1524.20	141	0.87
1525.30	404	2.50
1526.20	173	1.07
1527.40	313	1.94
1528.55	307	1.90
1529.50	150	0.93
1530.60	230	1.43
1531.55	187	1.16
1532.50	33	0.20
1533.75	184	1.14
1534.95	570	3.53
1535.85	35	0.22
1536.20	35	0.22
1537.00	242	1.50
1538.10	438	2.72
1539.25	185	1.15
1540.15	188	1.17
1541.25	110	0.68
1541.55	70	0.43
1542.40	232	1.44
1543.45	185	1.15
1544.50	303	1.88
1545.60	399	2.47
1546.70	263	1.63
1547.60	173	1.07
1548.80	281	1.74
1549.80	187	1.16
1551.05	302	1.87
1552.00	360	2.23
1553.10	248	1.54
1554.35	91	0.56
1555.20	238	1.48
1555.55	123	0.76
1556.35	270	1.67
1557.35	266	1.65
1558.50	255	1.58
1559.50	167	1.04
1560.45	143	0.89
1561.60	225	1.40
1562.50	114	0.71
1563.90	255	1.58
1564.80	135	0.84
1565.80	49	0.30
1566.95	298	1.85
1568.05	167	1.04
1569.25	262	1.62
1570.20	67	0.42
1571.20	45	0.28
1572.40	316	1.96
1573.35	203	1.26
1573.75	230	1.43
1574.50	183	1.13
1575.50	137	0.85
1576.60	334	2.07
1577.65	180	1.12
1578.85	230	1.43
1579.85	259	1.61
1580.75	191	1.18
1582.00	324	2.01
1583.05	71	0.44
1584.20	222	1.38
1585.15	228	1.41
1585.45	169	1.05
1586.15	237	1.47
1587.40	299	1.85
1588.45	525	3.26
1589.55	272	1.69
1590.45	196	1.22
1591.70	286	1.77
1592.65	202	1.25
1593.90	298	1.85
1594.75	277	1.72
1595.90	133	0.82
1597.05	308	1.91
1598.05	180	1.12
1599.10	145	0.90
1599.45	58	0.36
1600.05	290	1.80
1601.35	288	1.79
1602.30	299	1.85
1603.55	328	2.03
1604.35	127	0.79
1605.45	144	0.89
1606.60	534	3.31
1607.60	193	1.20
1608.65	88	0.55
1609.75	319	1.98
1610.70	93	0.58
1611.95	430	2.67
1613.10	191	1.18
1614.10	102	0.63
1615.00	104	0.64
1616.20	307	1.90
1617.10	99	0.61
1618.25	291	1.80
1619.25	378	2.34
1620.35	154	0.95
1621.40	206	1.28
1622.45	237	1.47
1623.45	99	0.61
1624.70	177	1.10
1625.65	194	1.20
1626.85	163	1.01
1627.75	135	0.84
1629.20	53	0.33
1630.00	335	2.08
1630.90	318	1.97
1632.00	37	0.23
1633.15	273	1.69
1634.30	183	1.13
1635.30	156	0.97
1636.50	350	2.17
1637.55	289	1.79
1638.50	2	0.01
1639.60	559	3.47
1640.65	77	0.48
1641.60	14	0.09
1642.80	436	2.70
1643.65	65	0.40
1644.10	46	0.29
1645.00	200	1.24
1645.75	49	0.30
1646.15	107	0.66
1647.00	59	0.37
1648.00	183	1.13
1649.25	282	1.75
1650.35	70	0.43
1651.45	293	1.82
1652.40	392	2.43
1653.60	367	2.28
1654.70	104	0.64
1656.65	329	2.04
1657.90	311	1.93
1658.75	155	0.96
1659.85	265	1.64
1660.80	586	3.63
1662.00	11	0.07
1663.20	273	1.69
1664.25	222	1.38
1665.20	118	0.73
1666.50	239	1.48
1667.45	144	0.89
1668.45	376	2.33
1669.55	375	2.33
1670.70	78	0.48
1671.75	236	1.46
1672.95	168	1.04
1673.65	190	1.18
1674.00	199	1.23
1674.90	319	1.98
1676.10	117	0.73
1677.05	387	2.40
1678.20	298	1.85
1679.25	122	0.76
1680.10	123	0.76
1681.35	474	2.94
1682.40	247	1.53
1683.25	126	0.78
1683.60	123	0.76
1684.50	303	1.88
1685.65	175	1.09
1686.50	338	2.10
1688.00	109	0.68
1688.65	246	1.53
1688.95	171	1.06
1689.90	304	1.88
1690.90	165	1.02
1692.10	137	0.85
1693.20	234	1.45
1694.25	296	1.84
1695.40	400	2.48
1696.45	310	1.92
1697.55	192	1.19
1698.60	140	0.87
1699.65	192	1.19
1700.95	34	0.21
1701.95	166	1.03
1703.00	201	1.25
1703.60	47	0.29
1704.05	74	0.46
1705.10	293	1.82
1706.10	66	0.41
1707.10	30	0.19
1708.30	43	0.27
1709.05	217	1.35
1709.35	188	1.17
1710.40	88	0.55
1711.25	232	1.44
1712.00	62	0.38
1713.25	66	0.41
1713.70	202	1.25
1714.75	286	1.77
1715.40	99	0.61
1715.80	81	0.50
1717.00	267	1.66
1717.40	140	0.87
1718.30	35	0.22
1719.10	182	1.13
1719.45	79	0.49
1720.20	124	0.77
1720.65	205	1.27
1721.15	184	1.14
1722.25	134	0.83
1723.10	7	0.04
1723.95	158	0.98
1724.40	124	0.77
1725.50	89	0.55
1726.60	267	1.66
1727.10	37	0.23
1727.50	86	0.53
1728.65	44	0.27
1729.60	65	0.40
1730.95	55	0.34
1731.35	171	1.06
1732.85	343	2.13
1734.15	57	0.35
1735.15	148	0.92
1735.70	95	0.59
1736.15	32	0.20
1737.20	114	0.71
1738.35	189	1.17
1739.45	95	0.59
1740.20	98	0.61
1741.35	250	1.55
1742.20	7	0.04
1744.00	22	0.14
1744.85	263	1.63
1745.35	147	0.91
1746.70	69	0.43
1747.90	467	2.90
1749.00	70	0.43
1750.05	325	2.02
1750.95	339	2.10
1752.30	346	2.15
1753.35	289	1.79
1754.45	99	0.61
1755.45	267	1.66
1756.50	401	2.49
1757.55	282	1.75
1758.30	96	0.60
1758.65	201	1.25
1759.65	146	0.91
1760.60	142	0.88
1761.00	77	0.48
1761.85	111	0.69
1762.90	216	1.34
1764.15	124	0.77
1765.05	236	1.46
1766.10	303	1.88
1767.15	287	1.78
1768.30	358	2.22
1769.25	258	1.60
1770.25	196	1.22
1770.55	147	0.91
1771.45	171	1.06
1772.40	200	1.24
1773.65	500	3.10
1774.55	305	1.89
1776.80	331	2.05
1777.75	396	2.46
1778.60	4	0.02
1781.00	134	0.83
1782.80	16	0.10
1784.15	118	0.73
1784.45	102	0.63
1785.25	189	1.17
1786.55	316	1.96
1787.40	384	2.38
1788.40	268	1.66
1789.55	304	1.88
1790.60	343	2.13
1791.50	113	0.70
1792.80	391	2.42
1793.60	114	0.71
1794.20	99	0.61
1794.90	237	1.47
1795.95	299	1.85
1797.30	203	1.26
1798.20	360	2.23
1799.05	234	1.45
1800.25	150	0.93
1801.20	176	1.09
1802.40	164	1.02
1803.40	291	1.80
1803.75	101	0.63
1804.60	45	0.28
1805.55	139	0.86
1806.65	123	0.76
1806.95	93	0.58
1807.65	97	0.60
1808.45	374	2.32
1809.85	43	0.27
1810.85	111	0.69
1811.20	97	0.60
1812.25	141	0.87
1813.05	130	0.81
1813.35	75	0.47
1814.05	59	0.37
1814.35	32	0.20
1815.40	257	1.59
1816.40	157	0.97
1817.40	27	0.17
1818.55	115	0.71
1819.70	137	0.85
1820.50	227	1.41
1821.65	144	0.89
1822.65	250	1.55
1823.60	65	0.40
1824.95	223	1.38
1825.85	494	3.06
1828.10	252	1.56
1829.20	67	0.42
1830.20	182	1.13
1831.40	179	1.11
1832.20	178	1.10
1833.40	243	1.51
1834.45	253	1.57
1835.60	90	0.56
1836.55	60	0.37
1837.70	356	2.21
1838.55	92	0.57
1839.50	13	0.08
1840.85	219	1.36
1841.90	11	0.07
1842.85	265	1.64
1843.30	334	2.07
1843.90	116	0.72
1845.25	367	2.28
1846.00	97	0.60
1846.55	32	0.20
1847.15	36	0.22
1847.60	27	0.17
1848.70	224	1.39
1849.70	174	1.08
1850.65	151	0.94
1851.90	101	0.63
1853.05	54	0.33
1854.25	71	0.44
1855.20	92	0.57
1855.70	153	0.95
1857.80	162	1.00
1858.50	118	0.73
1860.35	192	1.19
1861.15	261	1.62
1861.75	1190	7.38
1862.70	3	0.02
1864.50	86	0.53
1865.50	254	1.57
1866.65	243	1.51
1867.70	302	1.87
1868.60	121	0.75
1869.30	247	1.53
1870.10	157	0.97
1870.75	425	2.64
1871.90	15	0.09
1873.10	185	1.15
1873.75	206	1.28
1875.05	135	0.84
1875.55	19	0.12
1875.95	38	0.24
1877.00	30	0.19
1878.30	228	1.41
1879.45	387	2.40
1880.35	331	2.05
1881.95	156	0.97
1882.50	135	0.84
1883.60	86	0.53
1884.75	272	1.69
1885.95	60	0.37
1887.10	58	0.36
1888.00	271	1.68
1889.00	143	0.89
1890.20	187	1.16
1891.15	55	0.34
1892.25	229	1.42
1893.35	193	1.20
1894.45	428	2.65
1895.50	712	4.41
1896.45	83	0.51
1896.80	91	0.56
1897.70	336	2.08
1898.60	11	0.07
1899.95	258	1.60
1900.80	158	0.98
1901.80	23	0.14
1902.95	327	2.03
1903.40	103	0.64
1904.00	274	1.70
1905.20	270	1.67
1907.05	132	0.82
1908.30	248	1.54
1909.45	436	2.70
1910.45	136	0.84
1911.40	64	0.40
1912.55	270	1.67
1913.65	247	1.53
1914.80	325	2.02
1915.80	166	1.03
1916.85	181	1.12
1917.95	221	1.37
1919.05	403	2.50
1920.15	221	1.37
1921.15	289	1.79
1922.15	205	1.27
1923.35	193	1.20
1924.45	260	1.61
1925.40	156	0.97
1926.50	91	0.56
1927.60	211	1.31
1928.65	198	1.23
1929.70	218	1.35
1930.70	185	1.15
1931.85	100	0.62
1933.00	138	0.86
1934.00	289	1.79
1935.00	89	0.55
1936.15	165	1.02
1937.20	159	0.99
1938.30	755	4.68
1939.40	227	1.41
1940.45	173	1.07
1941.50	314	1.95
1942.55	355	2.20
1943.65	226	1.40
1944.70	217	1.35
1945.75	286	1.77
1946.90	368	2.28
1948.00	171	1.06
1948.95	416	2.58
1950.10	228	1.41
1951.05	320	1.98
1952.15	322	2.00
1953.10	144	0.89
1954.40	235	1.46
1955.35	457	2.83
1956.40	304	1.88
1957.55	350	2.17
1958.60	197	1.22
1959.70	384	2.38
1960.75	408	2.53
1961.75	145	0.90
1962.90	530	3.29
1963.85	277	1.72
1965.00	298	1.85
1966.05	778	4.82
1967.05	246	1.53
1968.20	270	1.67
1969.30	415	2.57
1970.30	307	1.90
1971.45	325	2.02
1972.40	326	2.02
1973.50	248	1.54
1974.60	394	2.44
1975.65	271	1.68
1976.70	240	1.49
1977.80	296	1.84
1978.90	295	1.83
1980.00	368	2.28
1981.00	516	3.20
1982.15	309	1.92
1983.20	315	1.95
1984.35	315	1.95
1985.20	265	1.64
1986.30	172	1.07
1987.40	342	2.12
1988.55	450	2.79
1989.55	339	2.10
1990.60	283	1.75
1991.70	220	1.36
1992.75	362	2.24
1993.80	416	2.58
1994.95	207	1.28
1995.90	161	1.00
1997.05	516	3.20
1998.10	194	1.20
1999.25	566	3.51
Event	2
