[MS Spectrum]
# of Peaks	1981
Raw Spectrum	[7.256],(scan:[2178])
Background	No Background Spectrum
Base Peak	m/z 60.60 (Inten : 14,854)
m/z	Absolute Intensity	Relative Intensity
50.90	7394	49.78
52.05	6387	43.00
52.70	2464	16.59
53.55	11365	76.51
54.95	5237	35.26
56.15	8989	60.52
57.00	2569	17.30
57.90	8565	57.66
59.10	2635	17.74
60.60	14854	100.00
61.30	2438	16.41
62.30	2581	17.38
63.50	11139	74.99
65.00	7318	49.27
66.20	6968	46.91
67.55	8255	55.57
67.80	2263	15.23
68.90	6480	43.62
69.95	4832	32.53
71.05	6323	42.57
72.15	4643	31.26
73.15	5088	34.25
74.20	4564	30.73
75.25	4699	31.63
76.30	4155	27.97
77.40	4172	28.09
78.40	4183	28.16
79.50	4642	31.25
80.70	4492	30.24
81.75	4241	28.55
82.85	3675	24.74
84.05	5645	38.00
85.15	2389	16.08
86.40	6416	43.19
87.40	1432	9.64
88.10	3234	21.77
89.70	7295	49.11
90.30	1514	10.19
91.30	3828	25.77
92.55	3175	21.37
93.55	3418	23.01
94.65	3023	20.35
95.70	2933	19.75
96.75	2879	19.38
97.90	3068	20.65
99.00	3647	24.55
100.05	2460	16.56
101.10	2930	19.73
102.15	3141	21.15
103.15	2604	17.53
104.45	2838	19.11
105.50	2328	15.67
106.45	2599	17.50
107.60	2579	17.36
108.70	2879	19.38
109.90	2618	17.62
110.85	2210	14.88
111.80	2094	14.10
112.95	2016	13.57
114.05	7464	50.25
115.10	630	4.24
116.30	850	5.72
117.25	1376	9.26
118.30	470	3.16
119.35	1691	11.38
120.50	1675	11.28
121.70	805	5.42
122.55	1453	9.78
123.65	2016	13.57
124.70	1051	7.08
126.00	2732	18.39
127.10	889	5.98
128.20	662	4.46
129.30	1250	8.42
130.15	1197	8.06
131.15	2071	13.94
132.30	1674	11.27
133.50	1207	8.13
134.45	1466	9.87
135.50	1220	8.21
136.70	1174	7.90
137.75	1216	8.19
138.70	1831	12.33
139.85	1380	9.29
140.85	1542	10.38
142.05	960	6.46
143.20	1169	7.87
144.30	1192	8.02
145.15	1432	9.64
146.35	1326	8.93
147.35	1534	10.33
148.65	951	6.40
149.50	1180	7.94
150.50	1465	9.86
151.70	1128	7.59
152.60	1008	6.79
153.65	1551	10.44
154.85	1208	8.13
156.00	1040	7.00
156.60	321	2.16
157.15	817	5.50
158.05	1235	8.31
159.25	1270	8.55
160.35	1406	9.47
161.40	1054	7.10
162.45	791	5.33
163.50	888	5.98
164.55	1152	7.76
165.60	1468	9.88
166.30	442	2.98
166.70	406	2.73
167.80	742	5.00
168.90	756	5.09
169.85	1117	7.52
170.95	946	6.37
171.90	984	6.62
173.00	1138	7.66
173.70	226	1.52
174.35	706	4.75
175.20	833	5.61
176.25	1090	7.34
177.35	879	5.92
178.00	211	1.42
178.60	646	4.35
179.65	1218	8.20
180.75	630	4.24
181.80	744	5.01
182.90	1278	8.60
184.00	641	4.32
185.00	1015	6.83
186.15	541	3.64
187.10	843	5.68
188.00	1711	11.52
188.60	665	4.48
189.35	678	4.56
190.35	714	4.81
191.60	581	3.91
192.40	428	2.88
192.80	316	2.13
193.10	133	0.90
193.75	455	3.06
194.70	575	3.87
195.80	588	3.96
196.85	455	3.06
198.00	382	2.57
199.00	603	4.06
200.20	659	4.44
200.70	232	1.56
201.25	547	3.68
202.20	685	4.61
203.40	991	6.67
204.50	887	5.97
205.10	267	1.80
205.60	588	3.96
206.50	779	5.24
207.55	816	5.49
208.25	451	3.04
208.80	528	3.55
209.80	573	3.86
210.75	691	4.65
211.90	490	3.30
213.15	1250	8.42
214.10	327	2.20
215.15	912	6.14
216.15	741	4.99
217.15	474	3.19
218.35	652	4.39
219.45	723	4.87
220.20	284	1.91
220.60	302	2.03
221.45	576	3.88
222.70	1032	6.95
223.65	797	5.37
225.05	807	5.43
226.00	417	2.81
226.95	539	3.63
228.10	808	5.44
229.10	363	2.44
230.10	899	6.05
231.30	637	4.29
232.35	582	3.92
233.45	702	4.73
234.50	547	3.68
235.75	433	2.92
236.15	117	0.79
236.70	722	4.86
237.55	670	4.51
238.80	342	2.30
240.10	792	5.33
241.00	503	3.39
242.10	520	3.50
243.20	728	4.90
244.30	103	0.69
245.35	636	4.28
246.40	535	3.60
247.35	615	4.14
248.45	415	2.79
249.60	493	3.32
250.70	513	3.45
251.80	479	3.22
252.40	71	0.48
252.90	425	2.86
254.05	452	3.04
254.95	843	5.68
256.05	249	1.68
257.20	627	4.22
258.20	710	4.78
259.20	578	3.89
260.35	630	4.24
261.40	650	4.38
262.65	618	4.16
263.65	394	2.65
264.40	380	2.56
264.75	247	1.66
265.75	375	2.52
266.60	630	4.24
267.90	399	2.69
268.90	367	2.47
270.15	513	3.45
271.15	413	2.78
272.10	573	3.86
273.30	432	2.91
274.50	394	2.65
275.40	632	4.25
276.50	331	2.23
277.25	168	1.13
277.60	166	1.12
278.70	621	4.18
279.60	908	6.11
280.80	302	2.03
281.80	335	2.26
282.95	493	3.32
284.15	480	3.23
284.90	785	5.28
286.20	326	2.19
287.35	914	6.15
288.30	441	2.97
289.20	126	0.85
289.55	239	1.61
290.40	457	3.08
291.50	194	1.31
292.25	104	0.70
292.65	289	1.95
293.75	306	2.06
294.70	436	2.94
295.85	497	3.35
296.95	770	5.18
298.05	438	2.95
298.80	158	1.06
299.25	265	1.78
300.15	615	4.14
301.20	267	1.80
302.30	613	4.13
303.35	478	3.22
304.30	429	2.89
305.55	515	3.47
306.25	94	0.63
306.70	260	1.75
307.15	210	1.41
307.70	399	2.69
308.70	554	3.73
309.70	464	3.12
310.55	133	0.90
311.00	275	1.85
311.65	229	1.54
312.10	321	2.16
313.10	306	2.06
314.20	335	2.26
315.25	597	4.02
316.10	490	3.30
317.05	230	1.55
317.50	298	2.01
318.35	401	2.70
319.10	134	0.90
319.65	128	0.86
320.15	196	1.32
320.55	364	2.45
321.30	404	2.72
321.90	263	1.77
322.80	158	1.06
323.85	217	1.46
324.70	401	2.70
325.20	39	0.26
326.05	149	1.00
326.65	56	0.38
327.15	265	1.78
327.90	67	0.45
328.15	64	0.43
328.90	172	1.16
329.30	226	1.52
329.85	102	0.69
330.35	408	2.75
331.95	117	0.79
332.60	277	1.86
333.45	434	2.92
334.15	338	2.28
334.85	806	5.43
335.70	298	2.01
336.35	207	1.39
336.75	299	2.01
337.70	220	1.48
338.45	244	1.64
339.00	99	0.67
340.15	366	2.46
340.90	10	0.07
341.55	291	1.96
342.25	54	0.36
342.75	105	0.71
343.95	223	1.50
344.35	321	2.16
344.90	375	2.52
345.35	366	2.46
346.00	117	0.79
347.15	174	1.17
347.55	259	1.74
348.30	500	3.37
349.80	267	1.80
350.25	204	1.37
350.80	226	1.52
351.35	203	1.37
351.90	152	1.02
352.50	208	1.40
352.90	178	1.20
353.55	129	0.87
354.50	249	1.68
355.50	67	0.45
356.70	145	0.98
357.35	177	1.19
357.75	186	1.25
358.35	64	0.43
358.85	185	1.25
359.85	431	2.90
361.05	84	0.57
362.00	345	2.32
363.40	453	3.05
364.30	7	0.05
365.35	155	1.04
365.85	117	0.79
366.25	176	1.18
367.10	316	2.13
367.55	120	0.81
368.60	118	0.79
369.55	208	1.40
370.10	71	0.48
370.70	186	1.25
371.70	302	2.03
372.35	182	1.23
372.80	234	1.58
373.80	124	0.83
374.60	144	0.97
375.15	152	1.02
375.60	109	0.73
376.10	88	0.59
376.60	218	1.47
377.15	503	3.39
377.70	155	1.04
378.35	346	2.33
379.20	171	1.15
379.85	134	0.90
380.50	298	2.01
381.45	296	1.99
382.50	42	0.28
383.65	55	0.37
384.25	185	1.25
384.65	95	0.64
385.70	88	0.59
386.95	229	1.54
387.40	160	1.08
388.05	151	1.02
388.55	52	0.35
389.05	143	0.96
389.60	273	1.84
390.30	451	3.04
391.75	190	1.28
392.40	691	4.65
393.40	238	1.60
393.95	98	0.66
394.55	107	0.72
395.00	254	1.71
395.45	312	2.10
396.50	220	1.48
397.10	193	1.30
397.75	334	2.25
398.15	89	0.60
399.20	295	1.99
400.30	72	0.48
401.60	204	1.37
402.00	96	0.65
402.45	60	0.40
403.30	31	0.21
404.20	170	1.14
404.60	161	1.08
405.30	149	1.00
406.70	226	1.52
407.40	89	0.60
407.90	57	0.38
408.35	138	0.93
409.20	14	0.09
409.95	318	2.14
410.60	161	1.08
411.10	276	1.86
412.00	41	0.28
412.80	144	0.97
413.30	91	0.61
413.85	78	0.53
414.40	181	1.22
414.90	195	1.31
415.60	71	0.48
416.00	219	1.47
416.50	175	1.18
417.45	208	1.40
418.10	144	0.97
418.75	23	0.15
419.40	264	1.78
419.75	135	0.91
420.30	100	0.67
420.85	197	1.33
421.40	145	0.98
421.75	46	0.31
422.55	450	3.03
423.00	241	1.62
423.50	333	2.24
424.70	184	1.24
425.15	38	0.26
425.75	143	0.96
426.30	141	0.95
426.80	102	0.69
427.15	200	1.35
427.85	150	1.01
428.55	173	1.16
428.95	71	0.48
429.40	218	1.47
430.00	274	1.84
430.45	31	0.21
430.90	44	0.30
432.00	4860	32.72
433.20	246	1.66
434.10	530	3.57
435.45	317	2.13
435.90	196	1.32
436.50	127	0.85
436.95	157	1.06
437.45	105	0.71
438.65	233	1.57
439.75	263	1.77
440.80	158	1.06
441.30	117	0.79
441.85	139	0.94
442.85	105	0.71
444.00	405	2.73
445.05	189	1.27
445.75	44	0.30
446.35	321	2.16
447.25	347	2.34
448.15	205	1.38
449.20	210	1.41
449.90	136	0.92
450.35	207	1.39
451.20	97	0.65
451.70	384	2.59
452.55	208	1.40
453.50	38	0.26
454.70	160	1.08
455.75	159	1.07
456.80	326	2.19
457.90	204	1.37
459.05	207	1.39
460.05	251	1.69
461.15	236	1.59
462.20	387	2.61
463.20	232	1.56
464.40	438	2.95
465.35	281	1.89
466.40	252	1.70
467.65	222	1.49
468.05	44	0.30
468.60	301	2.03
469.80	207	1.39
470.70	471	3.17
471.95	197	1.33
472.75	221	1.49
473.05	155	1.04
473.50	66	0.44
474.10	242	1.63
475.15	238	1.60
475.75	174	1.17
476.15	303	2.04
477.25	175	1.18
478.35	126	0.85
479.55	168	1.13
480.40	171	1.15
481.60	176	1.18
482.25	65	0.44
482.75	68	0.46
483.35	165	1.11
483.80	143	0.96
484.90	117	0.79
485.35	129	0.87
485.80	116	0.78
486.50	97	0.65
487.00	162	1.09
488.15	103	0.69
488.55	208	1.40
489.15	187	1.26
490.20	111	0.75
491.45	197	1.33
492.35	188	1.27
493.00	161	1.08
494.05	128	0.86
494.55	367	2.47
495.05	42	0.28
495.50	181	1.22
496.00	68	0.46
496.65	97	0.65
497.60	264	1.78
498.35	54	0.36
498.95	597	4.02
500.00	140	0.94
500.45	183	1.23
500.90	281	1.89
501.50	160	1.08
502.00	311	2.09
502.75	110	0.74
503.15	252	1.70
503.60	107	0.72
504.20	283	1.91
505.20	86	0.58
506.30	467	3.14
507.40	264	1.78
508.45	188	1.27
509.60	105	0.71
510.40	288	1.94
511.70	238	1.60
512.70	332	2.24
513.30	97	0.65
513.80	194	1.31
514.85	184	1.24
515.95	326	2.19
517.05	120	0.81
518.20	185	1.25
519.15	555	3.74
520.20	125	0.84
521.35	326	2.19
522.40	353	2.38
523.60	291	1.96
524.55	293	1.97
525.60	434	2.92
526.70	273	1.84
527.70	351	2.36
528.95	133	0.90
530.05	312	2.10
531.10	175	1.18
532.05	403	2.71
533.20	136	0.92
534.25	387	2.61
535.30	210	1.41
536.45	579	3.90
537.40	314	2.11
538.60	246	1.66
539.60	295	1.99
540.60	227	1.53
541.70	360	2.42
542.80	385	2.59
543.95	488	3.29
545.00	277	1.86
546.05	355	2.39
547.10	360	2.42
548.20	381	2.56
549.25	518	3.49
550.40	427	2.87
551.45	445	3.00
552.45	349	2.35
553.60	345	2.32
554.60	300	2.02
555.60	327	2.20
556.70	221	1.49
557.90	472	3.18
558.95	403	2.71
560.05	395	2.66
561.10	333	2.24
562.10	242	1.63
563.20	286	1.93
564.25	189	1.27
565.35	219	1.47
566.50	254	1.71
566.85	123	0.83
567.45	179	1.21
568.60	280	1.89
569.60	250	1.68
570.80	420	2.83
571.85	155	1.04
572.85	413	2.78
574.30	917	6.17
574.90	306	2.06
576.15	439	2.96
577.15	325	2.19
578.25	527	3.55
579.35	330	2.22
580.50	344	2.32
581.50	457	3.08
582.50	597	4.02
583.70	574	3.86
584.75	479	3.22
585.80	404	2.72
586.90	437	2.94
587.95	591	3.98
589.00	490	3.30
590.15	359	2.42
591.25	387	2.61
592.30	237	1.60
593.35	517	3.48
594.35	333	2.24
595.50	190	1.28
596.50	463	3.12
597.65	272	1.83
598.70	413	2.78
599.85	294	1.98
600.90	296	1.99
601.85	183	1.23
603.10	334	2.25
604.05	168	1.13
605.15	302	2.03
606.25	245	1.65
607.25	215	1.45
608.40	357	2.40
609.40	230	1.55
610.65	209	1.41
611.65	187	1.26
612.70	256	1.72
613.80	357	2.40
615.05	202	1.36
615.90	556	3.74
617.05	424	2.85
618.10	400	2.69
619.15	197	1.33
620.30	457	3.08
621.30	495	3.33
622.40	329	2.21
623.50	467	3.14
624.60	486	3.27
625.60	257	1.73
626.75	348	2.34
627.85	303	2.04
628.85	385	2.59
630.00	374	2.52
631.00	229	1.54
632.15	411	2.77
633.20	446	3.00
634.25	393	2.65
635.35	471	3.17
636.40	429	2.89
637.60	301	2.03
638.65	460	3.10
639.65	189	1.27
640.70	345	2.32
641.70	376	2.53
642.90	328	2.21
643.90	300	2.02
645.00	473	3.18
646.10	348	2.34
647.10	318	2.14
648.30	450	3.03
649.35	207	1.39
650.40	390	2.63
651.45	265	1.78
652.55	261	1.76
653.55	423	2.85
654.50	65	0.44
655.70	347	2.34
656.85	714	4.81
657.90	409	2.75
659.00	324	2.18
660.05	414	2.79
661.10	311	2.09
661.50	223	1.50
662.25	449	3.02
663.30	583	3.92
664.40	273	1.84
665.40	596	4.01
666.50	360	2.42
667.65	440	2.96
668.65	236	1.59
669.70	411	2.77
670.70	269	1.81
671.85	371	2.50
672.95	339	2.28
673.95	314	2.11
674.60	6	0.04
675.40	1629	10.97
676.20	273	1.84
677.30	447	3.01
678.35	446	3.00
679.35	259	1.74
680.40	402	2.71
681.45	387	2.61
682.55	297	2.00
683.60	599	4.03
684.75	322	2.17
685.80	261	1.76
686.85	397	2.67
687.95	465	3.13
689.10	251	1.69
690.15	488	3.29
691.20	114	0.77
692.30	436	2.94
693.30	210	1.41
694.40	243	1.64
695.50	304	2.05
696.50	233	1.57
697.65	348	2.34
698.75	354	2.38
699.85	445	3.00
700.85	234	1.58
702.00	534	3.59
703.05	200	1.35
704.20	258	1.74
705.25	374	2.52
706.15	121	0.81
707.50	282	1.90
708.35	368	2.48
709.30	83	0.56
709.60	162	1.09
710.60	410	2.76
711.70	264	1.78
712.75	351	2.36
713.80	178	1.20
714.95	310	2.09
716.00	341	2.30
716.55	22	0.15
717.10	272	1.83
718.15	186	1.25
719.40	377	2.54
720.20	507	3.41
721.55	127	0.85
722.55	220	1.48
723.55	211	1.42
724.60	134	0.90
725.65	306	2.06
726.85	410	2.76
727.95	294	1.98
729.00	139	0.94
730.00	315	2.12
731.25	60	0.40
732.25	344	2.32
733.15	224	1.51
734.45	323	2.17
735.35	362	2.44
736.60	359	2.42
737.60	378	2.54
738.70	237	1.60
739.75	191	1.29
740.90	291	1.96
742.00	252	1.70
743.05	249	1.68
744.05	360	2.42
745.10	215	1.45
746.35	260	1.75
747.25	334	2.25
748.30	179	1.21
749.45	470	3.16
750.45	372	2.50
751.65	241	1.62
752.80	459	3.09
753.90	244	1.64
754.90	234	1.58
756.00	349	2.35
757.00	207	1.39
758.20	302	2.03
759.00	249	1.68
760.20	132	0.89
761.35	167	1.12
762.35	301	2.03
763.30	34	0.23
764.55	268	1.80
765.70	279	1.88
766.70	260	1.75
767.20	127	0.85
767.75	458	3.08
768.80	96	0.65
769.90	255	1.72
770.95	94	0.63
771.50	878	5.91
772.00	191	1.29
773.25	166	1.12
773.65	75	0.50
774.20	490	3.30
775.25	101	0.68
776.40	194	1.31
777.45	204	1.37
778.55	132	0.89
779.60	422	2.84
780.85	254	1.71
781.80	285	1.92
782.80	222	1.49
783.95	128	0.86
785.10	267	1.80
786.35	185	1.25
787.30	85	0.57
788.20	352	2.37
788.70	142	0.96
789.25	308	2.07
790.55	186	1.25
791.60	533	3.59
792.65	861	5.80
793.80	435	2.93
794.70	304	2.05
795.05	185	1.25
795.75	171	1.15
796.05	143	0.96
796.85	366	2.46
797.95	188	1.27
799.05	126	0.85
800.05	67	0.45
800.55	89	0.60
801.15	263	1.77
801.45	149	1.00
802.15	76	0.51
803.30	246	1.66
803.65	138	0.93
804.50	296	1.99
805.75	205	1.38
806.70	275	1.85
807.65	170	1.14
807.95	164	1.10
808.75	78	0.53
809.05	82	0.55
810.05	210	1.41
811.05	236	1.59
812.10	465	3.13
813.15	286	1.93
814.05	227	1.53
815.40	180	1.21
816.55	139	0.94
817.25	63	0.42
817.65	70	0.47
818.50	280	1.89
819.50	332	2.24
820.75	301	2.03
821.70	328	2.21
822.80	180	1.21
823.90	326	2.19
825.10	313	2.11
826.15	238	1.60
826.95	174	1.17
827.35	260	1.75
828.30	453	3.05
829.15	60	0.40
829.50	60	0.40
830.35	381	2.56
831.50	175	1.18
832.45	95	0.64
833.65	610	4.11
834.80	177	1.19
835.65	82	0.55
835.95	78	0.53
836.85	486	3.27
837.95	166	1.12
839.20	119	0.80
839.85	102	0.69
841.05	413	2.78
842.05	146	0.98
842.35	113	0.76
843.15	127	0.85
844.15	157	1.06
845.45	503	3.39
846.35	264	1.78
847.40	76	0.51
847.75	94	0.63
848.55	246	1.66
848.85	166	1.12
849.60	343	2.31
850.80	260	1.75
851.70	93	0.63
852.80	138	0.93
853.90	387	2.61
855.10	378	2.54
856.05	78	0.53
857.25	262	1.76
858.20	369	2.48
859.20	150	1.01
860.40	271	1.82
861.40	287	1.93
862.55	226	1.52
863.55	252	1.70
864.55	297	2.00
865.70	169	1.14
866.80	324	2.18
867.90	355	2.39
868.95	466	3.14
870.10	316	2.13
871.05	275	1.85
872.15	413	2.78
873.30	252	1.70
874.30	206	1.39
875.45	372	2.50
876.55	357	2.40
877.60	217	1.46
878.60	166	1.12
879.10	71	0.48
879.65	341	2.30
880.70	238	1.60
881.90	389	2.62
883.05	290	1.95
884.00	369	2.48
885.15	190	1.28
886.15	259	1.74
887.25	214	1.44
887.55	142	0.96
888.20	317	2.13
889.35	244	1.64
890.50	387	2.61
890.95	46	0.31
891.50	226	1.52
892.50	67	0.45
893.65	277	1.86
894.80	108	0.73
895.90	298	2.01
896.90	319	2.15
897.80	44	0.30
899.10	349	2.35
900.15	133	0.90
901.15	300	2.02
902.50	58	0.39
903.40	305	2.05
904.45	399	2.69
905.55	184	1.24
906.50	358	2.41
907.60	232	1.56
908.75	163	1.10
909.75	278	1.87
910.90	320	2.15
912.05	274	1.84
913.10	180	1.21
914.10	400	2.69
915.20	378	2.54
916.25	459	3.09
917.35	225	1.51
918.40	233	1.57
919.55	322	2.17
920.60	473	3.18
921.70	301	2.03
922.75	126	0.85
923.80	342	2.30
924.90	136	0.92
926.15	137	0.92
926.95	110	0.74
928.05	377	2.54
929.20	324	2.18
930.40	342	2.30
930.75	114	0.77
931.10	81	0.55
932.50	349	2.35
933.45	325	2.19
934.70	122	0.82
935.70	222	1.49
936.70	8	0.05
937.75	152	1.02
938.85	331	2.23
940.00	99	0.67
941.05	157	1.06
942.10	328	2.21
943.10	202	1.36
944.30	228	1.53
945.45	393	2.65
946.40	331	2.23
947.55	319	2.15
948.55	556	3.74
949.65	223	1.50
950.75	372	2.50
951.15	132	0.89
951.85	241	1.62
952.85	274	1.84
953.85	494	3.33
955.05	231	1.56
956.10	291	1.96
957.15	343	2.31
958.15	404	2.72
959.35	345	2.32
960.35	420	2.83
961.50	125	0.84
962.45	164	1.10
963.55	381	2.56
964.50	69	0.46
965.75	186	1.25
966.75	199	1.34
967.80	143	0.96
968.40	477	3.21
968.95	303	2.04
970.00	122	0.82
971.10	262	1.76
972.10	195	1.31
973.15	128	0.86
974.40	98	0.66
975.45	334	2.25
976.15	165	1.11
976.60	130	0.88
977.55	156	1.05
978.60	179	1.21
979.70	182	1.23
980.80	224	1.51
981.90	126	0.85
983.05	186	1.25
983.60	36	0.24
984.10	499	3.36
985.10	121	0.81
985.55	82	0.55
986.30	187	1.26
987.45	229	1.54
988.15	136	0.92
988.60	85	0.57
989.60	386	2.60
990.45	396	2.67
991.55	87	0.59
992.75	285	1.92
993.60	82	0.55
994.05	80	0.54
994.75	135	0.91
995.15	177	1.19
996.00	363	2.44
996.95	71	0.48
997.95	144	0.97
998.35	46	0.31
999.15	267	1.80
1000.20	184	1.24
1000.70	243	1.64
1001.35	247	1.66
1002.40	222	1.49
1003.60	315	2.12
1004.75	309	2.08
1005.50	249	1.68
1008.00	174	1.17
1008.80	112	0.75
1009.80	101	0.68
1011.00	85	0.57
1012.15	76	0.51
1013.35	351	2.36
1014.30	224	1.51
1016.35	83	0.56
1017.45	89	0.60
1017.85	121	0.81
1018.55	218	1.47
1019.75	432	2.91
1020.65	198	1.33
1021.00	60	0.40
1021.75	284	1.91
1022.80	153	1.03
1023.30	133	0.90
1023.95	255	1.72
1024.90	37	0.25
1026.10	246	1.66
1027.25	97	0.65
1028.30	248	1.67
1029.20	141	0.95
1030.60	103	0.69
1031.45	193	1.30
1032.65	394	2.65
1033.70	70	0.47
1034.65	295	1.99
1035.70	201	1.35
1036.75	240	1.62
1037.20	119	0.80
1037.80	428	2.88
1038.30	240	1.62
1039.00	53	0.36
1040.25	206	1.39
1041.25	376	2.53
1042.10	23	0.15
1043.40	322	2.17
1044.25	109	0.73
1044.55	63	0.42
1045.50	282	1.90
1046.60	312	2.10
1047.55	234	1.58
1048.65	113	0.76
1049.80	346	2.33
1050.75	174	1.17
1051.85	149	1.00
1052.20	42	0.28
1053.20	241	1.62
1054.05	136	0.92
1055.15	375	2.52
1056.25	250	1.68
1057.20	57	0.38
1058.65	188	1.27
1059.35	256	1.72
1060.60	310	2.09
1061.55	221	1.49
1062.00	19	0.13
1062.75	291	1.96
1064.00	378	2.54
1064.80	303	2.04
1065.95	203	1.37
1067.30	177	1.19
1068.10	369	2.48
1069.20	357	2.40
1070.40	254	1.71
1071.35	341	2.30
1072.50	69	0.46
1073.40	296	1.99
1074.50	224	1.51
1075.75	310	2.09
1076.80	27	0.18
1077.95	254	1.71
1079.00	75	0.50
1079.95	357	2.40
1081.00	212	1.43
1082.30	80	0.54
1083.05	192	1.29
1083.45	96	0.65
1084.40	20	0.13
1085.35	293	1.97
1086.20	478	3.22
1087.70	41	0.28
1088.50	229	1.54
1089.55	149	1.00
1090.80	125	0.84
1091.75	76	0.51
1092.90	469	3.16
1093.70	89	0.60
1094.25	72	0.48
1095.15	61	0.41
1096.10	35	0.24
1098.20	313	2.11
1099.15	91	0.61
1099.65	26	0.18
1100.25	181	1.22
1101.05	1133	7.63
1101.60	258	1.74
1102.60	7	0.05
1103.55	382	2.57
1104.70	281	1.89
1105.85	174	1.17
1106.75	165	1.11
1108.00	222	1.49
1108.80	166	1.12
1110.20	319	2.15
1111.15	83	0.56
1112.25	211	1.42
1113.30	174	1.17
1114.25	51	0.34
1114.60	64	0.43
1115.70	202	1.36
1116.35	114	0.77
1116.70	86	0.58
1117.65	353	2.38
1118.75	215	1.45
1119.80	431	2.90
1120.70	95	0.64
1121.10	98	0.66
1121.80	123	0.83
1123.05	261	1.76
1124.30	109	0.73
1125.25	214	1.44
1126.20	74	0.50
1127.40	469	3.16
1128.35	145	0.98
1130.60	241	1.62
1131.65	393	2.65
1133.75	226	1.52
1134.00	117	0.79
1134.95	260	1.75
1136.10	141	0.95
1137.15	71	0.48
1138.10	220	1.48
1139.05	268	1.80
1139.45	102	0.69
1140.25	644	4.34
1141.50	115	0.77
1142.50	85	0.57
1143.55	287	1.93
1144.60	174	1.17
1145.70	234	1.58
1146.75	387	2.61
1147.85	171	1.15
1149.05	211	1.42
1150.05	279	1.88
1150.80	102	0.69
1152.10	538	3.62
1153.10	244	1.64
1154.50	238	1.60
1155.35	138	0.93
1156.15	139	0.94
1156.45	73	0.49
1157.55	402	2.71
1158.65	313	2.11
1159.90	143	0.96
1160.70	272	1.83
1161.85	168	1.13
1162.95	245	1.65
1164.10	259	1.74
1165.15	193	1.30
1166.10	109	0.73
1167.30	235	1.58
1168.05	50	0.34
1168.55	97	0.65
1169.45	357	2.40
1170.35	232	1.56
1171.75	234	1.58
1172.75	218	1.47
1173.80	164	1.10
1174.75	261	1.76
1175.90	341	2.30
1176.95	356	2.40
1177.95	188	1.27
1179.10	278	1.87
1180.20	255	1.72
1181.30	286	1.93
1182.45	203	1.37
1183.50	375	2.52
1184.65	197	1.33
1185.35	80	0.54
1185.75	114	0.77
1186.80	340	2.29
1187.55	532	3.58
1188.80	274	1.84
1189.70	88	0.59
1190.05	185	1.25
1190.80	201	1.35
1192.10	314	2.11
1193.15	207	1.39
1194.25	308	2.07
1195.40	145	0.98
1196.40	269	1.81
1197.25	247	1.66
1199.25	177	1.19
1199.65	274	1.84
1200.60	226	1.52
1201.65	118	0.79
1202.80	478	3.22
1204.00	154	1.04
1205.00	81	0.55
1206.15	165	1.11
1207.15	106	0.71
1208.35	67	0.45
1209.30	136	0.92
1210.30	67	0.45
1211.55	341	2.30
1212.40	229	1.54
1213.65	227	1.53
1214.45	397	2.67
1215.80	100	0.67
1216.75	406	2.73
1217.95	256	1.72
1219.00	176	1.18
1220.10	2491	16.77
1221.20	192	1.29
1222.20	77	0.52
1223.40	218	1.47
1224.30	3966	26.70
1225.30	37	0.25
1226.45	261	1.76
1227.45	402	2.71
1228.75	290	1.95
1229.60	455	3.06
1230.90	192	1.29
1231.95	206	1.39
1233.05	342	2.30
1233.90	330	2.22
1235.00	391	2.63
1236.10	159	1.07
1237.10	287	1.93
1238.40	150	1.01
1239.30	254	1.71
1240.40	16	0.11
1241.55	182	1.23
1242.55	217	1.46
1243.75	84	0.57
1244.65	525	3.53
1245.90	84	0.57
1247.05	227	1.53
1248.05	152	1.02
1248.90	449	3.02
1250.00	849	5.72
1251.30	196	1.32
1252.15	89	0.60
1253.35	277	1.86
1254.35	501	3.37
1255.60	51	0.34
1256.50	406	2.73
1257.45	298	2.01
1258.70	94	0.63
1259.75	228	1.53
1260.90	124	0.83
1261.90	463	3.12
1262.90	259	1.74
1264.05	269	1.81
1264.95	193	1.30
1265.20	110	0.74
1266.25	345	2.32
1267.20	91	0.61
1268.40	338	2.28
1269.40	213	1.43
1270.25	108	0.73
1270.70	340	2.29
1271.55	253	1.70
1272.65	290	1.95
1273.80	330	2.22
1274.90	423	2.85
1276.05	52	0.35
1276.95	361	2.43
1278.00	382	2.57
1279.15	216	1.45
1280.25	326	2.19
1281.30	267	1.80
1282.20	141	0.95
1283.45	463	3.12
1284.40	215	1.45
1285.70	220	1.48
1286.65	404	2.72
1287.75	256	1.72
1288.10	248	1.67
1288.75	280	1.89
1290.00	319	2.15
1291.05	170	1.14
1292.15	182	1.23
1293.20	79	0.53
1294.10	199	1.34
1295.35	168	1.13
1296.35	207	1.39
1297.40	290	1.95
1298.55	182	1.23
1299.50	261	1.76
1300.50	75	0.50
1301.75	264	1.78
1302.85	469	3.16
1304.00	366	2.46
1305.00	385	2.59
1306.10	255	1.72
1307.20	311	2.09
1308.30	374	2.52
1309.35	328	2.21
1310.40	411	2.77
1311.40	457	3.08
1312.60	353	2.38
1313.55	277	1.86
1314.60	392	2.64
1315.80	103	0.69
1316.85	361	2.43
1317.90	422	2.84
1318.95	244	1.64
1320.10	367	2.47
1321.15	342	2.30
1322.25	378	2.54
1323.25	338	2.28
1324.25	95	0.64
1325.50	283	1.91
1326.50	155	1.04
1327.60	197	1.33
1328.65	357	2.40
1329.75	259	1.74
1330.90	229	1.54
1331.95	310	2.09
1332.95	384	2.59
1334.05	325	2.19
1335.30	216	1.45
1336.15	312	2.10
1337.35	229	1.54
1338.40	384	2.59
1339.60	128	0.86
1340.50	246	1.66
1341.50	348	2.34
1342.75	278	1.87
1343.70	355	2.39
1344.80	262	1.76
1345.90	229	1.54
1346.95	548	3.69
1348.05	310	2.09
1349.15	637	4.29
1350.20	420	2.83
1351.35	339	2.28
1352.50	633	4.26
1353.40	317	2.13
1354.60	490	3.30
1355.65	515	3.47
1356.65	345	2.32
1357.75	272	1.83
1358.85	494	3.33
1359.90	319	2.15
1360.80	94	0.63
1362.05	412	2.77
1363.05	353	2.38
1364.25	194	1.31
1365.25	508	3.42
1366.30	197	1.33
1367.45	258	1.74
1368.50	501	3.37
1369.70	246	1.66
1370.55	245	1.65
1371.65	275	1.85
1372.85	480	3.23
1373.95	412	2.77
1375.00	227	1.53
1375.95	371	2.50
1377.20	239	1.61
1378.15	221	1.49
1379.25	129	0.87
1380.30	379	2.55
1381.45	179	1.21
1382.50	279	1.88
1383.60	369	2.48
1384.65	301	2.03
1385.80	378	2.54
1386.85	257	1.73
1387.95	163	1.10
1388.95	291	1.96
1390.00	231	1.56
1391.20	349	2.35
1392.25	324	2.18
1393.10	173	1.16
1394.35	282	1.90
1395.30	202	1.36
1396.60	124	0.83
1397.60	176	1.18
1398.55	324	2.18
1399.70	300	2.02
1400.85	424	2.85
1401.95	162	1.09
1402.95	381	2.56
1404.20	300	2.02
1405.10	161	1.08
1406.25	270	1.82
1407.25	227	1.53
1408.25	173	1.16
1409.40	229	1.54
1410.30	287	1.93
1411.70	129	0.87
1412.65	180	1.21
1413.70	322	2.17
1414.75	154	1.04
1415.90	407	2.74
1417.00	247	1.66
1418.00	331	2.23
1419.15	190	1.28
1420.15	126	0.85
1421.25	498	3.35
1422.30	145	0.98
1423.50	306	2.06
1424.45	401	2.70
1425.60	524	3.53
1426.70	325	2.19
1427.75	409	2.75
1428.85	193	1.30
1429.85	532	3.58
1431.00	398	2.68
1432.05	286	1.93
1433.15	297	2.00
1434.15	493	3.32
1435.35	281	1.89
1436.40	349	2.35
1437.35	388	2.61
1438.55	345	2.32
1439.55	432	2.91
1440.65	239	1.61
1441.70	249	1.68
1442.80	341	2.30
1443.90	306	2.06
1444.95	295	1.99
1446.15	342	2.30
1447.05	173	1.16
1448.20	254	1.71
1449.20	230	1.55
1450.40	332	2.24
1451.45	154	1.04
1452.50	404	2.72
1453.65	259	1.74
1454.60	341	2.30
1455.75	210	1.41
1456.75	181	1.22
1457.90	268	1.80
1458.90	237	1.60
1460.10	288	1.94
1461.15	278	1.87
1462.10	54	0.36
1463.30	472	3.18
1464.30	408	2.75
1465.60	223	1.50
1466.50	426	2.87
1467.55	311	2.09
1468.65	257	1.73
1469.70	424	2.85
1470.85	343	2.31
1471.95	293	1.97
1472.95	344	2.32
1474.05	375	2.52
1475.15	273	1.84
1476.20	321	2.16
1477.15	196	1.32
1478.40	346	2.33
1479.40	349	2.35
1480.60	441	2.97
1481.50	281	1.89
1482.50	219	1.47
1482.90	73	0.49
1483.70	340	2.29
1484.85	158	1.06
1485.90	505	3.40
1486.85	140	0.94
1488.05	553	3.72
1489.05	217	1.46
1490.25	294	1.98
1491.25	446	3.00
1492.30	202	1.36
1493.35	290	1.95
1494.40	233	1.57
1495.80	2210	14.88
1496.60	334	2.25
1497.85	180	1.21
1498.85	461	3.10
1499.95	378	2.54
1500.95	393	2.65
1502.20	226	1.52
1503.15	423	2.85
1504.20	355	2.39
1505.35	533	3.59
1506.35	225	1.51
1507.45	117	0.79
1508.45	512	3.45
1509.60	465	3.13
1510.75	366	2.46
1511.75	405	2.73
1512.90	369	2.48
1513.85	319	2.15
1515.00	398	2.68
1516.05	378	2.54
1517.20	413	2.78
1518.20	370	2.49
1519.20	157	1.06
1520.35	433	2.92
1521.45	361	2.43
1522.55	182	1.23
1523.60	415	2.79
1524.70	331	2.23
1525.75	177	1.19
1526.85	319	2.15
1527.90	369	2.48
1528.85	224	1.51
1529.15	166	1.12
1530.15	476	3.20
1531.15	298	2.01
1532.25	348	2.34
1533.35	617	4.15
1534.30	81	0.55
1534.60	148	1.00
1535.45	639	4.30
1536.55	348	2.34
1537.70	484	3.26
1538.65	474	3.19
1539.80	327	2.20
1540.85	324	2.18
1541.90	312	2.10
1543.00	384	2.59
1544.20	126	0.85
1545.20	559	3.76
1546.20	273	1.84
1547.25	248	1.67
1548.35	323	2.17
1549.65	176	1.18
1550.55	351	2.36
1551.55	275	1.85
1552.75	347	2.34
1553.70	342	2.30
1554.85	474	3.19
1555.90	309	2.08
1557.00	565	3.80
1558.00	254	1.71
1559.20	198	1.33
1560.20	333	2.24
1561.20	208	1.40
1561.45	216	1.45
1562.40	445	3.00
1563.50	273	1.84
1564.60	127	0.85
1565.60	327	2.20
1566.60	477	3.21
1567.70	132	0.89
1568.85	281	1.89
1569.90	375	2.52
1571.00	292	1.97
1572.10	653	4.40
1573.00	321	2.16
1574.30	336	2.26
1575.30	369	2.48
1576.45	241	1.62
1577.45	434	2.92
1578.50	146	0.98
1579.65	336	2.26
1580.60	138	0.93
1580.85	129	0.87
1581.80	211	1.42
1582.90	352	2.37
1583.95	397	2.67
1585.05	356	2.40
1586.20	261	1.76
1587.20	333	2.24
1588.20	155	1.04
1589.35	443	2.98
1590.40	394	2.65
1591.50	357	2.40
1592.55	433	2.92
1593.60	319	2.15
1594.65	343	2.31
1595.75	469	3.16
1596.85	427	2.87
1597.90	245	1.65
1599.05	192	1.29
1600.05	339	2.28
1601.25	435	2.93
1602.25	386	2.60
1603.25	120	0.81
1604.40	448	3.02
1605.55	432	2.91
1606.60	345	2.32
1607.65	354	2.38
1608.65	262	1.76
1609.80	397	2.67
1610.90	406	2.73
1611.95	419	2.82
1613.05	403	2.71
1614.10	519	3.49
1615.15	139	0.94
1616.25	410	2.76
1617.30	350	2.36
1618.40	193	1.30
1619.45	215	1.45
1620.50	367	2.47
1621.65	151	1.02
1622.70	336	2.26
1623.80	388	2.61
1624.85	438	2.95
1626.00	283	1.91
1627.05	340	2.29
1628.10	360	2.42
1629.20	515	3.47
1630.15	203	1.37
1631.35	507	3.41
1632.35	541	3.64
1633.50	245	1.65
1634.50	245	1.65
1635.65	361	2.43
1636.75	413	2.78
1637.70	340	2.29
1638.80	424	2.85
1639.95	507	3.41
1641.05	384	2.59
1642.05	157	1.06
1643.15	369	2.48
1644.25	528	3.55
1645.35	394	2.65
1646.40	349	2.35
1647.45	331	2.23
1648.55	274	1.84
1649.65	472	3.18
1650.70	344	2.32
1651.80	440	2.96
1652.95	418	2.81
1653.95	348	2.34
1655.05	292	1.97
1656.05	346	2.33
1657.05	296	1.99
1658.25	415	2.79
1659.30	446	3.00
1660.55	324	2.18
1661.45	428	2.88
1662.60	279	1.88
1663.70	403	2.71
1664.70	310	2.09
1665.80	349	2.35
1666.85	402	2.71
1667.95	151	1.02
1669.10	679	4.57
1670.25	215	1.45
1671.15	597	4.02
1672.20	297	2.00
1673.40	255	1.72
1674.35	358	2.41
1675.50	440	2.96
1676.55	349	2.35
1677.65	364	2.45
1678.75	373	2.51
1679.80	532	3.58
1680.90	234	1.58
1682.20	219	1.47
1683.00	206	1.39
1684.15	179	1.21
1685.15	313	2.11
1686.20	370	2.49
1687.35	251	1.69
1688.45	511	3.44
1689.55	390	2.63
1690.60	501	3.37
1691.80	472	3.18
1692.75	392	2.64
1693.80	355	2.39
1694.80	169	1.14
1695.10	233	1.57
1696.00	178	1.20
1697.10	297	2.00
1698.10	268	1.80
1699.15	255	1.72
1700.30	354	2.38
1701.35	460	3.10
1702.50	299	2.01
1703.50	167	1.12
1704.50	274	1.84
1705.70	357	2.40
1706.70	285	1.92
1707.90	313	2.11
1708.85	346	2.33
1709.95	481	3.24
1711.05	485	3.27
1712.10	619	4.17
1713.20	619	4.17
1714.15	412	2.77
1715.35	363	2.44
1716.40	370	2.49
1717.55	300	2.02
1718.55	401	2.70
1719.65	408	2.75
1720.70	338	2.28
1721.70	262	1.76
1722.90	304	2.05
1723.95	535	3.60
1725.05	244	1.64
1726.05	365	2.46
1727.15	397	2.67
1728.30	490	3.30
1729.30	371	2.50
1730.45	496	3.34
1731.50	339	2.28
1732.55	109	0.73
1733.65	306	2.06
1734.75	279	1.88
1735.70	177	1.19
1736.85	585	3.94
1737.95	338	2.28
1739.00	475	3.20
1740.00	436	2.94
1741.10	296	1.99
1742.25	418	2.81
1743.35	620	4.17
1744.20	114	0.77
1744.55	71	0.48
1745.45	372	2.50
1746.50	375	2.52
1747.55	311	2.09
1748.65	434	2.92
1749.70	345	2.32
1750.80	325	2.19
1751.80	264	1.78
1752.90	407	2.74
1754.00	375	2.52
1755.15	333	2.24
1756.20	375	2.52
1757.35	207	1.39
1758.25	370	2.49
1759.50	380	2.56
1760.50	307	2.07
1761.50	424	2.85
1762.65	341	2.30
1763.70	416	2.80
1764.80	229	1.54
1765.90	427	2.87
1766.85	256	1.72
1767.15	149	1.00
1768.00	190	1.28
1769.20	253	1.70
1770.20	274	1.84
1771.15	247	1.66
1772.35	140	0.94
1773.35	273	1.84
1774.60	154	1.04
1775.50	309	2.08
1776.70	255	1.72
1777.75	203	1.37
1778.75	301	2.03
1779.80	151	1.02
1781.15	227	1.53
1782.05	306	2.06
1783.05	284	1.91
1784.10	258	1.74
1785.25	429	2.89
1786.25	172	1.16
1787.40	270	1.82
1788.40	315	2.12
1789.65	158	1.06
1790.65	237	1.60
1791.70	250	1.68
1792.70	197	1.33
1793.90	510	3.43
1794.95	398	2.68
1796.15	364	2.45
1797.15	416	2.80
1798.10	196	1.32
1799.20	186	1.25
1800.30	360	2.42
1801.35	401	2.70
1802.45	489	3.29
1803.50	323	2.17
1804.65	401	2.70
1805.65	216	1.45
1806.80	374	2.52
1807.90	323	2.17
1808.95	310	2.09
1810.00	184	1.24
1811.10	503	3.39
1812.15	291	1.96
1813.10	191	1.29
1814.35	153	1.03
1815.35	344	2.32
1816.60	116	0.78
1817.50	291	1.96
1818.55	338	2.28
1819.70	341	2.30
1820.75	434	2.92
1821.75	221	1.49
1822.90	248	1.67
1824.00	410	2.76
1824.95	102	0.69
1826.20	290	1.95
1827.20	448	3.02
1828.20	206	1.39
1829.35	450	3.03
1830.40	252	1.70
1831.50	290	1.95
1832.55	444	2.99
1833.65	538	3.62
1834.75	368	2.48
1835.90	560	3.77
1836.95	354	2.38
1838.05	448	3.02
1839.05	369	2.48
1840.00	213	1.43
1841.25	300	2.02
1842.25	344	2.32
1843.25	284	1.91
1844.35	357	2.40
1845.50	439	2.96
1846.65	460	3.10
1847.65	370	2.49
1848.80	332	2.24
1849.80	377	2.54
1850.90	460	3.10
1851.95	200	1.35
1853.10	354	2.38
1854.15	293	1.97
1855.15	248	1.67
1856.25	451	3.04
1857.40	227	1.53
1858.45	336	2.26
1859.40	296	1.99
1860.60	239	1.61
1861.70	442	2.98
1862.75	509	3.43
1863.80	237	1.60
1864.85	307	2.07
1865.15	176	1.18
1866.05	691	4.65
1867.05	297	2.00
1868.20	246	1.66
1869.20	408	2.75
1870.20	16	0.11
1871.35	351	2.36
1872.40	296	1.99
1873.60	202	1.36
1874.65	413	2.78
1875.70	441	2.97
1876.70	251	1.69
1877.95	245	1.65
1878.95	335	2.26
1880.05	317	2.13
1881.10	384	2.59
1882.15	200	1.35
1883.25	357	2.40
1884.25	357	2.40
1885.35	428	2.88
1886.50	372	2.50
1887.60	387	2.61
1888.65	335	2.26
1889.70	268	1.80
1890.75	132	0.89
1891.85	162	1.09
1893.05	280	1.89
1894.00	275	1.85
1895.15	273	1.84
1896.20	446	3.00
1897.20	193	1.30
1898.30	289	1.95
1899.35	362	2.44
1900.55	194	1.31
1901.55	212	1.43
1902.65	266	1.79
1903.70	335	2.26
1904.80	231	1.56
1905.90	251	1.69
1906.95	250	1.68
1908.05	403	2.71
1909.05	274	1.84
1910.20	269	1.81
1911.20	430	2.89
1912.35	328	2.21
1913.40	316	2.13
1914.45	297	2.00
1915.65	436	2.94
1916.65	538	3.62
1917.70	375	2.52
1918.75	340	2.29
1919.90	337	2.27
1920.90	271	1.82
1922.00	395	2.66
1923.10	445	3.00
1924.05	217	1.46
1925.25	177	1.19
1926.25	464	3.12
1927.35	169	1.14
1928.35	347	2.34
1929.45	472	3.18
1930.60	294	1.98
1931.70	222	1.49
1932.75	276	1.86
1933.80	218	1.47
1934.90	470	3.16
1936.00	430	2.89
1937.15	386	2.60
1938.15	274	1.84
1939.20	218	1.47
1940.30	416	2.80
1941.30	294	1.98
1942.50	183	1.23
1943.50	226	1.52
1944.60	570	3.84
1945.70	337	2.27
1946.65	325	2.19
1947.85	429	2.89
1948.95	297	2.00
1950.00	473	3.18
1951.05	146	0.98
1952.20	251	1.69
1953.20	340	2.29
1954.20	224	1.51
1955.40	574	3.86
1956.40	357	2.40
1957.55	229	1.54
1958.55	257	1.73
1959.65	371	2.50
1960.75	429	2.89
1961.75	256	1.72
1962.95	444	2.99
1963.90	294	1.98
1965.05	471	3.17
1966.10	205	1.38
1967.20	412	2.77
1968.25	344	2.32
1969.35	392	2.64
1970.35	395	2.66
1971.45	353	2.38
1972.55	236	1.59
1973.60	272	1.83
1974.70	243	1.64
1975.80	354	2.38
1976.80	343	2.31
1977.95	387	2.61
1978.95	353	2.38
1980.05	430	2.89
1981.10	236	1.59
1982.30	647	4.36
1983.35	649	4.37
1984.45	219	1.47
1985.55	175	1.18
1986.65	351	2.36
1987.70	464	3.12
1988.80	511	3.44
1989.85	334	2.25
1990.85	197	1.33
1991.90	566	3.81
1993.00	549	3.70
1994.15	469	3.16
1995.15	365	2.46
1996.30	169	1.14
1997.35	472	3.18
1998.40	442	2.98
1999.55	243	1.64
Event	2
